File: XPS/LG4X-result/HT-1-C1s.csv
#No of rows lightened (2D detector)1(if not using 2D detector, value is 1 and can be ignored!)
raw_x,raw_y,corrected x,data-bg,sum_components,bg,sum_fit,C=C,pi-pi*,pi-pi*2,C-C,C-O,C=O
295.0,852.0,295.6685,0.0,-792.486,852.0,59.5136,21.0376,26.4408,0.175768,3.16967,4.43964,4.2502
294.8,922.0,295.468,70.2504,-787.14,851.75,64.6099,21.8119,29.4422,0.92832,3.29551,4.63445,4.49762
294.6,925.0,295.268,73.5408,-779.064,851.459,72.3948,22.6298,33.0293,3.69691,3.42905,4.84238,4.76745
294.4,950.0,295.069,99.1175,-765.218,850.882,85.6648,23.4945,37.3711,11.1011,3.57094,5.06462,5.06251
294.2,951.0,294.869,100.686,-743.662,850.314,106.652,24.4098,42.6966,25.1348,3.72189,5.30252,5.38608
294.0,986.0,294.6685,136.435,-716.779,849.565,132.787,25.3796,49.3137,42.9111,3.8827,5.5576,5.74199
293.8,1008.0,294.468,159.283,-693.417,848.717,155.3,26.4084,57.6318,55.2394,4.05424,5.83154,6.13472
293.6,1047.0,294.268,199.299,-681.465,847.701,166.235,27.5011,68.1827,53.6183,4.23751,6.12626,6.56961
293.4,999.0,294.069,152.3,-679.229,846.7,167.471,28.663,81.6346,39.243,4.43361,6.4439,7.05298
293.2,1084.0,293.869,238.425,-676.206,845.575,169.369,29.9001,98.7894,21.6568,4.64377,6.78692,7.5924
293.0,1048.0,293.6685,203.544,-663.45,844.456,181.006,31.2191,120.551,9.01183,4.8694,7.15808,8.19702
292.8,1067.0,293.468,223.829,-638.317,843.171,204.854,32.6273,147.849,2.82758,5.11206,7.56055,8.87792
292.6,1120.0,293.268,278.205,-602.461,841.795,239.334,34.1331,181.512,0.668963,5.37352,7.99797,9.64872
292.4,1123.0,293.069,282.83,-557.559,840.17,282.61,35.7455,222.089,0.119337,5.65581,8.47449,10.5263
292.2,1151.0,292.869,312.52,-504.877,838.48,333.602,37.4749,269.624,0.016052,5.96123,8.99493,11.5316
292.0,1256.0,292.6685,419.597,-445.085,836.403,391.318,39.333,323.434,0.00162806,6.29241,9.56485,12.6913
291.8,1262.0,292.468,428.032,-379.818,833.968,454.149,41.3328,381.934,0.000124508,6.65237,10.1907,14.0394
291.6,1384.0,292.268,552.674,-311.733,831.326,519.593,43.4891,442.559,7.1797e-06,7.0446,10.8802,15.6201
291.4,1443.0,292.069,614.894,-243.82,828.106,584.286,45.8186,501.861,3.12177e-07,7.47314,11.642,17.4914
291.2,1474.0,291.869,649.394,-180.318,824.606,644.288,48.3405,555.787,1.02348e-08,7.94267,12.4869,19.7308
291.0,1565.0,291.6685,744.437,-125.024,820.563,695.539,51.0765,600.133,2.53013e-10,8.45872,13.4272,22.4431
290.8,1607.0,291.468,790.753,-81.8108,816.247,734.436,54.0516,631.107,4.71619e-12,9.02773,14.478,25.7716
290.6,1561.0,291.268,749.045,-53.5411,811.955,758.413,57.2944,645.892,6.62864e-14,9.65738,15.6572,29.9126
290.4,1634.0,291.069,826.451,-41.1345,807.549,766.414,60.8381,643.097,7.02493e-16,10.3568,16.9867,35.135
290.2,1566.0,290.869,762.705,-44.155,803.295,759.14,64.7211,622.989,5.61363e-18,11.1368,18.4931,41.8002
290.0,1468.0,290.6685,668.766,-60.2055,799.234,739.028,68.9881,587.442,3.38244e-20,12.0108,20.2093,50.3777
289.8,1481.0,290.468,685.713,-85.3427,795.287,709.945,73.6915,539.638,1.53674e-22,12.9946,22.1762,61.4446
289.6,1493.0,290.268,701.629,-114.715,791.371,676.656,78.8929,483.561,5.2645e-25,14.1079,24.4452,75.6487
289.4,1449.0,290.069,661.627,-143.21,787.373,644.163,84.6653,423.426,1.35987e-27,15.3749,27.0812,93.6155
289.2,1374.0,289.869,590.145,-166.847,783.855,617.007,91.0952,363.137,2.64864e-30,16.8256,30.1682,115.781
289.0,1392.0,289.6685,611.66,-181.697,780.34,598.644,98.2867,305.884,3.88984e-33,18.4972,33.8149,142.161
288.8,1399.0,289.468,622.201,-185.817,776.799,590.982,106.365,253.924,4.30751e-36,20.4364,38.1651,172.092
288.6,1348.0,289.268,574.594,-179.227,773.406,594.179,115.482,208.546,3.59671e-39,22.7014,43.4118,204.038
288.4,1341.0,289.069,571.033,-163.215,769.967,606.752,125.823,170.18,2.26448e-42,25.3645,49.8182,235.566
288.2,1349.0,288.869,582.316,-140.626,766.684,626.058,137.62,138.598,1.07502e-45,28.5151,57.7503,263.575
288.0,1391.0,288.6685,627.726,-114.191,763.274,649.083,151.157,113.142,3.84812e-49,32.2615,67.7275,284.796
287.8,1430.0,288.468,670.353,-86.2238,759.647,673.424,166.795,92.9328,1.03864e-52,36.7329,80.5018,296.461
287.6,1473.0,288.268,717.197,-57.5643,755.803,698.239,184.992,77.0381,2.11382e-56,42.0787,97.1802,296.95
287.4,1450.0,288.069,698.311,-26.7059,751.689,724.983,206.34,64.5805,3.2438e-60,48.4644,119.407,286.191
287.2,1516.0,287.869,768.449,10.2043,747.551,757.755,231.609,54.7985,3.7534e-64,56.0634,149.597,265.687
287.0,1605.0,287.6685,862.048,60.2335,742.952,803.185,261.821,47.0674,3.27476e-68,65.0424,191.125,238.13
286.8,1599.0,287.468,860.983,131.709,738.017,869.727,298.347,40.8961,2.15437e-72,75.5399,248.17,206.774
286.6,1758.0,287.268,1025.42,233.418,732.575,965.993,343.062,35.9095,1.06867e-76,87.6383,324.626,174.757
286.4,1905.0,287.069,1178.69,371.452,726.311,1097.76,398.57,31.8269,3.99718e-81,101.331,421.453,144.582
286.2,1922.0,286.869,1202.59,544.647,719.413,1264.06,468.552,28.4402,1.12732e-85,116.487,532.717,117.864
286.0,2176.0,286.6685,1464.21,742.908,711.788,1454.7,558.314,25.5956,2.39732e-90,132.825,642.629,95.3325
285.8,2329.0,286.468,1625.94,950.116,703.059,1653.18,675.684,23.1792,3.84404e-95,149.892,727.398,77.0216
285.6,2527.0,286.268,1833.99,1154.08,693.012,1847.09,832.579,21.1056,4.64767e-100,167.07,763.814,62.5206
285.4,2727.0,286.069,2045.04,1360.8,681.96,2042.76,1047.91,19.3102,4.23709e-105,183.594,740.728,51.2128
285.2,2970.0,285.869,2300.51,1608.16,669.491,2277.65,1353.56,17.7433,2.91262e-110,198.613,665.288,42.4475
285.0,3313.0,285.6685,2657.53,1974.55,655.471,2630.02,1807.86,16.3663,1.50968e-115,211.258,558.892,35.6396
284.8,3810.0,285.468,3171.13,2603.92,638.866,3242.79,2530.43,15.1485,5.90026e-121,220.733,446.171,30.3101
284.6,5053.0,285.268,4435.3,3801.08,617.704,4418.78,3807.06,14.0657,1.73877e-126,226.406,345.167,26.0887
284.4,7443.0,285.069,6856.4,6410.38,586.604,6996.98,6469.37,13.0979,3.86364e-132,227.882,263.928,22.6997
284.2,14370.0,284.869,13840.6,12998.9,529.418,13528.3,13068.4,12.2291,6.47346e-138,225.059,202.712,19.9413
284.0,25946.0,284.6685,25527.5,25435.8,418.514,25854.3,25449.1,11.4458,8.17825e-144,218.133,158.003,17.6661
283.8,28438.0,284.468,28179.5,27741.3,258.523,27999.8,27640.2,10.737,7.79057e-150,207.582,125.54,15.7669
283.6,13932.0,284.268,13795,13637.5,136.952,13774.4,13454.4,10.0933,5.5958e-156,194.098,101.728,14.164
283.4,4350.0,284.069,4260.51,4497.53,89.4906,4587.02,4302.27,9.50674,3.03068e-162,178.51,83.9426,12.798
283.2,1774.0,283.869,1700.19,1648.49,73.8146,1722.3,1469.63,8.97074,1.23766e-168,161.691,70.3845,11.6237
283.0,1007.0,283.6685,940.452,736.637,66.5475,803.185,579.786,8.47953,3.8111e-175,144.472,59.8411,10.6064
282.8,627.0,283.468,564.621,380.922,62.3788,443.3,246.487,8.02816,8.84874e-182,127.575,51.4915,9.71889
282.6,388.0,283.268,328.158,220.823,59.8422,280.665,107.773,7.61239,1.54917e-188,111.569,44.7713,8.93973
282.4,299.0,283.069,240.718,140.541,58.2823,198.823,47.2078,7.22852,2.04503e-195,96.8507,39.2842,8.25175
282.2,220.0,282.869,162.822,96.123,57.1777,153.301,20.3863,6.87332,2.03556e-202,83.6529,34.747,7.64112
282.0,184.0,282.6685,127.641,68.8858,56.3586,125.244,8.58821,6.54397,1.52776e-209,72.0629,30.9528,7.09653
281.8,161.0,282.468,105.284,50.4382,55.7157,106.154,3.50358,6.238,8.64587e-217,62.0559,27.7478,6.60872
281.6,144.0,282.268,88.8852,36.9297,55.1148,92.0445,1.37669,5.95322,3.68933e-224,53.5283,25.0162,6.16997
281.4,140.0,282.069,85.3515,26.3315,54.6485,80.98,0.518951,5.6877,1.18706e-231,46.3302,22.6692,5.77387
281.2,119.0,281.869,64.7849,17.7552,54.2151,71.9703,0.187077,5.43972,2.87992e-239,40.2907,20.6378,5.41502
281.0,108.0,281.6685,54.0869,10.5533,53.9131,64.4664,0.0643348,5.20776,5.26833e-247,35.2375,18.8679,5.08886
280.8,104.0,281.468,50.3693,4.49835,53.6307,58.129,0.0210638,4.99045,7.26692e-255,31.0097,17.3164,4.79151
280.6,90.0,281.268,36.6134,-0.661124,53.3866,52.7254,0.00655515,4.78658,7.55809e-263,27.4639,15.9488,4.51964
280.4,85.0,281.069,31.775,-5.14289,53.225,48.0821,0.00193641,4.59505,5.92733e-271,24.4777,14.7371,4.27042
280.2,73.0,280.869,19.9161,-9.01993,53.0839,44.064,0.00054236,4.41487,3.50502e-279,21.9487,13.6585,4.04138
280.0,79.0,280.6685,26.0892,-12.3474,52.9108,40.5633,0.000143891,4.24517,1.56281e-287,19.7934,12.6942,3.83038
279.8,81.0,280.468,28.2207,-15.2858,52.7793,37.4935,3.6131e-05,4.08513,5.2542e-296,17.9442,11.8286,3.63557
279.6,75.0,280.268,22.3643,-17.8509,52.6357,34.7847,8.58061e-06,3.93404,1.33196e-304,16.3467,11.0486,3.45533
279.4,74.0,280.069,21.4903,-20.1293,52.5097,32.3804,1.92611e-06,3.79123,2.54602e-313,14.9575,10.3434,3.28823
279.2,73.0,279.869,20.5884,-22.177,52.4116,30.2346,4.08444e-07,3.6561,2.77e-322,13.7419,9.70359,3.13302
279.0,73.0,279.6685,20.7114,-23.9788,52.2886,28.3098,8.17846e-08,3.52812,0.0,12.6717,9.12141,2.9886
278.8,60.0,279.468,7.77952,-25.6452,52.2205,26.5753,1.54566e-08,3.40678,0.0,11.7244,8.59012,2.85397
278.6,56.0,279.268,3.82667,-27.1678,52.1733,25.0055,2.75613e-09,3.29163,0.0,10.8817,8.10394,2.72828
278.4,72.0,279.069,19.9054,-28.5154,52.0946,23.5792,4.6354e-10,3.18225,0.0,10.1283,7.65792,2.61074
278.2,62.0,278.869,9.95895,-29.7624,52.0411,22.2786,7.351e-11,3.07826,0.0,9.45198,7.24775,2.50066
278.0,61.0,278.6685,9.0,-30.9112,52.0,21.0888,1.09874e-11,2.97931,0.0,8.84234,6.86968,2.39743
277.8,67.0,278.468,15.0,-32.0032,52.0,19.9968,1.54618e-12,2.88508,0.0,8.29077,6.52045,2.30048
277.6,65.0,278.268,13.0,-33.0082,52.0,18.9918,2.06389e-13,2.79527,0.0,7.79003,6.1972,2.20931
277.4,56.0,278.069,4.0,-33.9355,52.0,18.0645,2.46587e-14,2.70961,0.0,7.33396,5.89741,2.12347
277.2,68.0,277.869,16.0,-34.7934,52.0,17.2066,3.3133e-15,2.62785,0.0,6.91734,5.61887,2.04256
277.0,58.0,277.6685,6.0,-35.5888,52.0,16.4112,0.0,2.54975,0.0,6.53568,5.35961,1.96619