File: XPS/LG4X-result/HT-C1s.csv
#No of rows lightened (2D detector)1(if not using 2D detector, value is 1 and can be ignored!)
raw_x,raw_y,corrected x,data-bg,sum_components,bg,sum_fit,C=C,pi-pi*,pi-pi*2,C-C,C-O,C=O,O-C=O
294.9,53.0753,295.571,22.6821,7.21043,30.3933,37.6037,18.5801,1.2733,6.42018,5.30351,5.67792,0.0320206,0.316642
294.6,73.5408,295.271,43.1499,25.9219,30.3909,56.3128,19.6284,2.90955,21.6885,5.63289,6.06861,0.0347991,0.350041
294.3,100.401,294.971,70.0329,65.3195,30.3678,95.6873,20.7681,6.26814,55.7289,5.99426,6.50094,0.0379588,0.389065
294.0,136.435,294.6708,106.097,111.217,30.338,141.555,22.0099,12.7313,92.9639,6.39196,6.98102,0.0415735,0.435065
293.7,178.762,294.371,148.466,128.473,30.2969,158.77,23.3666,24.3794,96.1411,6.83108,7.51613,0.0457358,0.489829
293.4,152.3,294.071,122.053,116.155,30.2478,146.403,24.8527,44.0142,61.4967,7.31767,8.11498,0.0505636,0.555765
293.1,173.009,293.771,142.817,113.818,30.192,144.01,26.4852,74.9172,25.2682,7.85893,8.78807,0.0562087,0.636181
292.8,223.829,293.471,193.697,144.822,30.132,174.954,28.2841,120.224,7.63575,8.46348,9.54815,0.0628698,0.735733
292.5,292.014,293.1708,261.956,205,30.0579,235.058,30.2727,181.893,2.4079,9.14179,10.4108,0.0708104,0.861159
292.2,312.52,292.871,282.549,285.495,29.9714,315.466,32.4787,259.455,1.12768,9.90661,11.3952,0.0803881,1.02254
291.9,433.809,292.571,403.954,379.339,29.8549,409.194,34.9349,348.921,0.71194,10.7736,12.5253,0.0920976,1.2356
291.6,552.674,292.271,522.958,478.093,29.7161,507.809,37.6807,442.395,0.506827,11.7623,13.8312,0.106642,1.52623
291.3,600.619,291.971,571.084,570.749,29.5358,600.285,40.7636,528.825,0.38259,12.8972,15.3509,0.125055,1.94041
291.0,744.437,291.6708,715.115,645.264,29.322,674.586,44.2409,595.982,0.300112,14.2096,17.1336,0.148914,2.57031
290.7,741.929,291.371,712.847,691.393,29.0821,720.475,48.1831,633.247,0.242171,15.7398,19.2428,0.180801,3.63943
290.4,826.451,291.071,797.61,703.727,28.841,732.569,52.6768,634.355,0.199763,17.5411,21.7626,0.225666,5.80771
290.1,714.802,290.771,686.196,684.38,28.6065,712.986,57.83,599.115,0.167723,19.6846,24.8055,0.297549,11.0858
289.8,685.713,290.471,657.324,644.663,28.3887,673.051,63.7784,533.466,0.142892,22.2682,28.5249,0.458196,24.4129
289.5,726.656,290.1708,698.486,603.223,28.1697,631.393,70.6945,447.839,0.123241,25.4297,33.1332,1.00609,53.1666
289.2,590.145,289.871,562.177,575.612,27.968,603.58,78.8002,354.451,0.107411,29.3689,38.9316,3.1547,98.7661
288.9,630.423,289.571,602.648,560.587,27.7743,588.361,88.3851,264.49,0.0944657,34.3833,46.3567,10.5996,144.052
288.6,574.594,289.271,547.01,545.662,27.5847,573.246,99.8324,186.072,0.0837407,40.925,56.0566,31.0574,159.219
288.3,579.666,288.971,552.268,534.37,27.3989,561.769,113.658,123.416,0.0747529,49.6872,69.0208,73.5784,132.333
288.0,627.726,288.6708,600.512,550.625,27.2134,577.838,130.571,77.1762,0.0671448,61.7199,86.7995,137.562,83.9426
287.7,660.241,288.371,633.231,604.425,27.0104,631.435,151.563,45.5001,0.0606465,78.5604,111.881,201.279,42.5912
287.4,698.311,288.071,671.525,676.182,26.7861,702.968,178.062,25.2906,0.0550514,102.321,148.3,229.797,19.1426
287.1,804.682,287.771,778.132,750.467,26.55,777.017,212.181,13.2534,0.050199,135.629,202.402,204.544,8.95778
286.8,860.983,287.471,834.705,848.47,26.2782,874.748,257.151,6.54804,0.045963,181.264,282.727,142.046,4.96548
286.5,1104.45,287.1708,1078.49,1011.62,25.9615,1037.58,318.122,3.05011,0.042243,241.379,394.565,77.1777,3.24856
286.2,1202.59,286.871,1177.01,1252.53,25.5804,1278.11,403.701,1.33949,0.0389582,316.303,521.312,33.0641,2.35008
285.9,1529.46,286.571,1504.33,1526.59,25.1326,1551.72,529.102,0.554602,0.0360431,403.223,605.583,11.4244,1.79937
285.6,1833.99,286.271,1809.4,1786.38,24.5827,1810.96,722.981,0.216492,0.0334441,495.312,587.571,3.41548,1.42892
285.3,2219.09,285.971,2195.16,2085.35,23.9335,2109.28,1043.53,0.079675,0.031117,581.984,481.421,1.07423,1.16513
285.0,2657.53,285.6708,2634.37,2606.67,23.1561,2629.82,1622.42,0.0276453,0.0290251,650.676,355.227,0.475961,0.969672
284.7,3650.82,285.371,3628.66,3746.48,22.1536,3768.63,2824.21,0.00904353,0.0271376,689.895,253.365,0.303997,0.820385
284.4,6856.4,285.071,6835.87,6992.85,20.5249,7013.37,6137.4,0.00278917,0.0254288,692.532,182.477,0.229238,0.703577
284.1,19379.7,284.771,19363.2,19331,16.5225,19347.6,18553.7,0.000811017,0.0238767,658.095,134.95,0.183233,0.610346
283.8,28179.5,284.471,28171.5,28032.8,7.93135,28040.8,27344.4,0.000222333,0.0224627,592.87,102.765,0.150697,0.534681
283.5,7689.55,284.1708,7687.46,7921.37,2.09083,7923.46,7334.51,5.74642e-05,0.0211709,507.929,80.3967,0.126412,0.472389
283.2,1700.19,283.871,1699.35,1543.91,0.837359,1544.75,1063.92,1.40026e-05,0.0199876,415.889,64.3918,0.107703,0.420468
282.9,715.804,283.571,715.336,577.599,0.468065,578.068,197.209,3.21692e-06,0.0189008,327.75,52.6198,0.0929433,0.37672
282.6,328.158,283.271,327.857,333.618,0.300915,333.919,38.8278,6.9677e-07,0.0179005,250.909,43.7437,0.0810746,0.339506
282.3,187.325,282.971,187.108,232.895,0.217731,233.113,7.11126,1.42285e-07,0.0169777,188.703,36.9033,0.0713758,0.307577
282.0,127.641,282.6708,127.474,174.025,0.167233,174.193,1.14282,2.73934e-08,0.0161244,141.161,31.5297,0.0633413,0.279973
281.7,114.596,282.371,114.466,133.896,0.130594,134.027,0.156191,4.97224e-09,0.015334,106.306,27.2368,0.0566063,0.255943
281.4,85.3515,282.071,85.2499,105.36,0.101622,105.461,0.0178134,8.50898e-10,0.0146004,81.387,23.7561,0.050902,0.234893
281.1,46.9435,281.771,46.8646,84.8221,0.0789085,84.901,0.00167429,1.37284e-10,0.0139182,63.7263,20.8967,0.0460264,0.216347
280.8,50.3693,281.471,50.3067,69.8443,0.0625743,69.9068,0.00012857,2.08826e-11,0.0132828,51.1313,18.5204,0.0418249,0.199922
280.5,22.6976,281.1708,22.6477,58.6991,0.0499791,58.7491,8.01564e-06,2.99479e-12,0.01269,41.988,16.5249,0.0381779,0.185306
280.2,19.9161,280.871,19.8745,50.1977,0.0416028,50.2393,4.03813e-07,4.04918e-13,0.0121361,35.1865,14.8334,0.0349912,0.172241
279.9,19.1535,280.571,19.121,43.5511,0.0324943,43.5836,1.63791e-08,5.16163e-14,0.0116176,29.9917,13.3876,0.0321899,0.160515
279.6,22.3643,280.271,22.3399,38.2327,0.0244025,38.2571,5.3338e-10,6.20333e-15,0.0111317,25.924,12.1423,0.029714,0.14995
279.3,13.54,279.971,13.5223,33.8915,0.0176613,33.9091,1.39141e-11,7.02882e-16,0.0106757,22.6683,11.0622,0.0275147,0.140397
279.0,20.7114,279.6708,20.7003,30.2899,0.0110823,30.301,2.90183e-13,7.50859e-17,0.0102472,20.0139,10.1196,0.025552,0.131732
278.7,10.8059,279.371,10.7984,27.258,0.00745408,27.2654,4.8508e-15,7.5623e-18,0.00984396,17.816,9.29199,0.0237931,0.123846
278.4,19.9054,279.071,19.9017,24.6783,0.00363463,24.6819,0.0,7.18071e-19,0.00946409,15.972,8.56159,0.0222105,0.11665
278.1,4.98015,278.771,4.97939,22.4607,0.00076235,22.4614,0.0,6.42836e-20,0.00910581,14.4077,7.91378,0.0207814,0.110064
277.8,15.0,278.471,15.0,20.5366,0.0,20.5366,0.0,5.42566e-21,0.00876751,13.0678,7.33659,0.0194864,0.104022
277.5,11.0,278.1708,11.0,18.8557,0.0,18.8557,0.0,4.31741e-22,0.00844772,11.9103,6.82015,0.0183092,0.0984649
277.2,16.0,277.871,16.0,17.3779,0.0,17.3779,0.0,3.23901e-23,0.00814513,10.9029,6.35625,0.0172359,0.0933423
277.0,6.0,277.6708,6.0,16.4894,0.0,16.4894,0.0,5.57605e-24,0.00795236,10.302,6.07272,0.0165721,0.0901465