File: XPS/LG4X-result/HT-O1s.csv
#No of rows lightened (2D detector)1(if not using 2D detector, value is 1 and can be ignored!),,,,,,,,
raw_x,raw_y,corrected x,data-bg,sum_components,bg,sum_fit,bg_shirley_,C-O,C=O
539.9,8536,540.5708,-42.4647,45.2787,8578.46,8623.74,8578.46,45.2787,1.70552e-32
539.7,8373,540.3708,-203.805,47.7692,8576.81,8624.57,8576.81,47.7692,5.26978e-31
539.5,8537,540.1708,-38.6171,50.4712,8575.62,8626.09,8575.62,50.4712,1.51105e-29
539.3,8592,539.9708,18.1112,53.4095,8573.89,8627.3,8573.89,53.4095,4.0208e-28
539.1,8687,539.7708,115.153,56.6125,8571.85,8628.46,8571.85,56.6125,9.92884e-27
538.9,8558,539.5708,-11.7419,60.1129,8569.74,8629.85,8569.74,60.1129,2.27528e-25
538.7,8548,539.3708,-19.7622,63.9489,8567.76,8631.71,8567.76,63.9489,4.83861e-24
538.5,8644,539.1708,78.1289,68.1649,8565.87,8634.04,8565.87,68.1649,9.549e-23
538.3,8429,538.9708,-134.578,72.8127,8563.58,8636.39,8563.58,72.8127,1.74882e-21
538.1,8676,538.7708,114.47,77.9535,8561.53,8639.48,8561.53,77.9535,2.97223e-20
537.9,8678,538.5708,118.956,83.6599,8559.04,8642.7,8559.04,83.6599,4.68782e-19
537.7,8706,538.3708,149.404,90.0179,8556.6,8646.61,8556.6,90.0179,6.86134e-18
537.5,8699,538.1708,144.84,97.131,8554.16,8651.29,8554.16,97.131,9.31962e-17
537.3,8724,537.9708,172.428,105.124,8551.57,8656.7,8551.57,105.124,1.17473e-15
537.1,8773,537.7708,223.896,114.148,8549.1,8663.25,8549.1,114.148,1.37413e-14
536.9,8691,537.5708,144.685,124.389,8546.32,8670.7,8546.32,124.389,1.49165e-13
536.7,8600,537.3708,56.0342,136.077,8543.97,8680.04,8543.97,136.077,1.50265e-12
536.5,8719,537.1708,177.184,149.498,8541.82,8691.31,8541.82,149.498,1.40475e-11
536.3,8703,536.9708,163.686,165.013,8539.31,8704.33,8539.31,165.013,1.21868e-10
536.1,8852,536.7708,315.359,183.08,8536.64,8719.72,8536.64,183.08,9.81139e-10
535.9,8772,536.5708,238.382,204.293,8533.62,8737.91,8533.62,204.293,7.33031e-09
535.7,8744,536.3708,212.963,229.425,8531.04,8760.46,8531.04,229.425,5.08235e-08
535.5,8955,536.1708,427.017,259.497,8527.98,8787.48,8527.98,259.497,3.27007e-07
535.3,8882,535.9708,357.612,295.883,8524.39,8820.27,8524.39,295.883,1.95254e-06
535.1,8906,535.7708,384.99,340.445,8521.01,8861.46,8521.01,340.445,1.08192e-05
534.9,8950,535.5708,432.735,395.743,8517.27,8913.01,8517.27,395.743,5.56337e-05
534.7,8875,535.3708,361.228,465.312,8513.77,8979.08,8513.77,465.311,0.00026548
534.5,9154,535.1708,644.086,554.004,8509.91,9063.92,8509.91,554.002,0.00117565
534.3,9179,534.9708,673.497,668.342,8505.5,9173.85,8505.5,668.337,0.00483139
534.1,9291,534.7708,790.341,816.669,8500.66,9317.33,8500.66,816.651,0.0184254
533.9,9536,534.5708,1041.24,1008.7,8494.76,9503.46,8494.76,1008.63,0.0652099
533.7,9640,534.3708,1151.8,1253.86,8488.2,9742.06,8488.2,1253.65,0.214171
533.5,9973,534.1708,1492.1,1557.87,8480.9,10038.8,8480.9,1557.21,0.652764
533.3,10474,533.9708,2002.32,1917.56,8471.68,10389.2,8471.68,1915.72,1.84631
533.1,10770,533.7708,2309.94,2315.49,8460.06,10775.6,8460.06,2310.65,4.8462
532.9,11256,533.5708,2809.3,2717.26,8446.7,11164,8446.7,2705.45,11.8045
532.7,11513,533.3708,3081.78,3075.24,8431.22,11506.5,8431.22,3048.55,26.6838
532.5,11919,533.1708,3504.6,3340.2,8414.4,11754.6,8414.4,3284.22,55.9752
532.3,11754,532.9708,3357.73,3477.82,8396.27,11874.1,8396.27,3368.86,108.967
532.1,11742,532.7708,3363.04,3482.65,8378.96,11861.6,8378.96,3285.79,196.854
531.9,11684,532.5708,3322.68,3381.41,8361.32,11742.7,8361.32,3051.38,330.023
531.7,11603,532.3708,3258.74,3222.5,8344.26,11566.8,8344.26,2709.05,513.445
531.5,11496,532.1708,3168.65,3055.78,8327.35,11383.1,8327.35,2314.48,741.301
531.3,11366,531.9708,3054.97,2912.56,8311.03,11223.6,8311.03,1919.34,993.22
531.1,10923,531.7708,2626.87,2795.32,8296.13,11091.5,8296.13,1560.38,1234.94
530.9,10914,531.5708,2631.35,2681.2,8282.65,10963.9,8282.65,1256.25,1424.95
530.7,10862,531.3708,2592.38,2536.51,8269.62,10806.1,8269.62,1010.7,1525.81
530.5,10606,531.1708,2349.1,2334.44,8256.9,10591.3,8256.9,818.255,1516.19
530.3,10278,530.9708,2032.74,2067.73,8245.26,10313,8245.26,669.573,1398.16
530.1,9879,530.7708,1643.93,1751.45,8235.07,9986.51,8235.07,554.957,1196.49
529.9,9720,530.5708,1493.47,1416.25,8226.53,9642.78,8226.53,466.056,950.195
529.7,9401,530.3708,1181.41,1096.6,8219.59,9316.19,8219.59,396.331,700.272
529.5,8911,530.1708,696.747,819.845,8214.25,9034.1,8214.25,340.916,478.929
529.3,8811,529.9708,600.211,600.232,8210.79,8811.02,8210.79,296.265,303.967
529.1,8655,529.7708,446.733,438.844,8208.27,8647.11,8208.27,259.811,179.032
528.9,8378,529.5708,171.933,327.541,8206.07,8533.61,8206.07,229.685,97.856
528.7,8512,529.3708,306.978,254.148,8205.02,8459.17,8205.02,204.512,49.6356
528.5,8389,529.1708,185.509,206.63,8203.49,8410.12,8203.49,183.266,23.3641
528.3,8385,528.9708,182.503,175.378,8202.5,8377.87,8202.5,165.172,10.206
528.1,8264,528.7708,62.2769,153.772,8201.72,8355.5,8201.72,149.635,4.13727
527.9,8306,528.5708,104.945,137.753,8201.05,8338.81,8201.05,136.196,1.5564
527.7,8318,528.3708,117.251,125.037,8200.75,8325.79,8200.75,124.493,0.54335
527.5,8293,528.1708,93.0695,114.415,8199.93,8314.35,8199.93,114.239,0.17603
527.3,8287,527.9708,87.7032,105.257,8199.3,8304.55,8199.3,105.205,0.0529232
527.1,8289,527.7708,90.1668,97.2174,8198.83,8296.05,8198.83,97.2027,0.0147658
526.9,8377,527.5708,178.532,90.0856,8198.47,8288.55,8198.47,90.0818,0.0038231
526.7,8315,527.3708,117.274,83.718,8197.73,8281.44,8197.73,83.7171,0.000918597
526.5,8129,527.1708,-68.265,78.0052,8197.26,8275.27,8197.26,78.005,0.000204826
526.3,8268,526.9708,70.6217,72.8592,8197.38,8270.24,8197.38,72.8591,4.23834e-05
526.1,8309,526.7708,112.108,68.2069,8196.89,8265.1,8196.89,68.2069,8.13874e-06
525.9,8360,526.5708,163.699,63.9872,8196.3,8260.29,8196.3,63.9872,1.45034e-06
525.7,8190,526.3708,-5.91109,60.1478,8195.91,8256.06,8195.91,60.1478,2.39845e-07
525.5,8225,526.1708,29.0446,56.6443,8195.96,8252.6,8195.96,56.6443,3.68081e-08
525.3,8333,525.9708,137.222,53.4387,8195.78,8249.22,8195.78,53.4387,5.24211e-09
525.1,8322,525.7708,126.681,50.498,8195.32,8245.82,8195.32,50.498,6.92817e-10
525,8408,525.6708,212.995,49.118,8195,8244.12,8195,49.118,2.4491e-10