File: XPS/LG4X-result/MX-HT-0.5-Ti2p_2.csv
#No of rows lightened (2D detector)1(if not using 2D detector, value is 1 and can be ignored!)
raw_x,raw_y,corrected x,data-bg,sum_components,bg,sum_fit,C_1,C_2,C_3,C_4,C_5,C_6,C_7,C_8
470.0,366.0,470.6318,366.0,144.629,0.0,144.629,12.1199,10.7231,10.7469,22.0938,68.6187,8.73552,7.97819,3.61318
469.7,415.0,470.332,415.0,153.32,0.0,153.32,12.7888,11.2155,11.2019,22.9709,73.1277,9.36136,8.64214,4.01168
469.4,363.0,470.0318,363.0,162.868,0.0,162.868,13.5145,11.7426,11.6865,23.9014,78.0941,10.0567,9.39217,4.47966
469.1,313.0,469.7318,313.0,173.396,0.0,173.396,14.3038,12.3078,12.2031,24.8894,83.5818,10.8322,10.2438,5.03418
468.8,140.0,469.432,140.0,185.054,0.0,185.054,15.1641,12.9147,12.7548,25.9401,89.6659,11.7005,11.216,5.69785
468.5,212.0,469.1318,212.0,198.022,0.0,198.022,16.1043,13.5675,13.3447,27.0586,96.4357,12.6772,12.3326,6.50116
468.2,195.0,468.832,195.0,212.521,0.0,212.521,17.1347,14.2711,13.9765,28.251,103.997,13.7807,13.6235,7.4859
467.9,87.0,468.5318,87.0,228.826,0.0,228.826,18.267,15.0307,14.6542,29.524,112.479,15.0341,15.1267,8.71067
467.6,104.403,468.2318,104.403,247.285,0.0,247.285,19.5151,15.8526,15.3824,30.885,122.034,16.4656,16.891,10.2595
467.3,63.83,467.932,63.83,268.345,0.0,268.345,20.8954,16.7436,16.1661,32.3422,132.852,18.1102,18.9798,12.2562
467.0,104.399,467.6318,104.399,292.595,0.0,292.595,22.4272,17.7119,17.0113,33.9049,145.161,20.0122,21.4772,14.8891
466.7,125.756,467.332,125.756,320.834,0.0,320.834,24.1334,18.7664,17.9244,35.5837,159.248,22.2279,24.4955,18.4547
466.4,250.21,467.0318,250.21,354.188,0.0,354.188,26.0414,19.9178,18.9131,37.3901,175.468,24.8293,28.1882,23.44
466.1,271.986,466.7318,271.986,394.319,0.0,394.319,28.1845,21.1783,19.9857,39.3377,194.268,27.9107,32.7685,30.6852
465.8,275.147,466.432,275.147,443.835,0.0,443.835,30.6025,22.562,21.1521,41.4413,216.218,31.5962,38.5392,41.7233
465.5,484.191,466.1318,484.191,507.145,0.0,507.145,33.3446,24.0856,22.4235,43.7181,242.048,36.0524,45.9403,59.5327
465.2,708.405,465.832,708.405,592.339,0.0,592.339,36.471,25.7686,23.813,46.1877,272.704,41.5063,55.6286,90.2596
464.9,821.361,465.5318,821.361,715.002,0.0,715.002,40.057,27.6337,25.3355,48.8724,309.426,48.2737,68.6124,146.791
464.6,940.204,465.2318,940.204,900.017,0.0,900.017,44.1966,29.7084,27.0086,51.7979,353.844,56.8023,86.4894,250.17
464.3,1169.69,464.932,1169.69,1132.3,0.0,1132.3,49.0096,32.025,28.8528,54.9939,408.118,67.7422,111.871,379.687
464.0,1146.36,464.6318,1146.36,1252.4,0.0,1252.4,54.6493,34.6225,30.8922,58.4947,475.127,82.0614,149.146,367.403
463.7,1267.13,464.332,1267.13,1294.73,0.0,1294.73,61.3155,37.5482,33.1553,62.3403,558.708,101.241,205.758,234.661
463.4,1563.99,464.0318,1563.99,1435.6,0.0,1435.6,69.2713,40.8594,35.676,66.5776,663.994,127.617,293.724,137.879
463.1,1742.71,463.7318,1742.71,1709.23,0.0,1709.23,78.8693,44.6267,38.4947,71.2613,797.842,164.968,427.664,85.5023
462.8,2012.52,463.432,2012.52,2105.4,0.0,2105.4,90.5903,48.9375,41.6604,76.4566,969.402,219.547,601.954,56.8503
462.5,2542.39,463.1318,2542.39,2547.04,0.0,2547.04,105.103,53.9009,45.2321,82.2404,1190.73,301.649,728.081,40.1025
462.2,2960.26,462.832,2960.26,2932.57,0.0,2932.57,123.356,59.6547,49.2823,88.705,1477.06,426.876,677.995,29.6439
461.9,3516.65,462.532,3516.65,3350.38,0.0,3350.38,146.735,66.375,53.9,95.9615,1845.17,610.758,508.738,22.736
461.6,3899.24,462.232,3899.24,3922.66,0.0,3922.66,177.314,74.2892,59.1961,104.144,2304.48,833.858,351.42,17.9585
461.3,4347.5,461.932,4347.5,4537.49,0.0,4537.49,218.308,83.6953,65.3098,113.418,2826.82,972.384,243.025,14.5272
461.0,4964.33,461.6318,4964.33,4916.57,0.0,4916.57,274.878,94.9892,72.4175,123.984,3276.04,889.064,173.213,11.9846
460.7,4657.44,461.332,4657.44,4846.38,0.0,4846.38,355.673,108.706,80.7461,136.095,3355.38,671.872,127.862,10.0506
460.4,4360.87,461.032,4360.87,4257.11,0.0,4257.11,475.86,125.582,90.5904,150.065,2837.1,471.876,97.486,8.54677
460.1,3452.05,460.732,3452.05,3457.52,0.0,3457.52,663.288,146.649,102.339,166.294,1963.74,331.428,76.4289,7.35499
459.8,2863.09,460.432,2863.09,2931.88,0.0,2931.88,970.759,173.393,116.514,185.296,1179.08,239.091,61.3516,6.39498
459.5,3015.08,460.1318,3015.08,2933.6,0.0,2933.6,1494.99,208,133.825,207.737,655.099,178.094,50.2407,5.61058
459.2,3617.92,459.832,3617.92,3535.4,0.0,3535.4,2358.61,253.784,155.262,234.495,349.726,136.711,41.8443,4.96159
458.9,4435.13,459.532,4435.13,4480.32,0.0,4480.32,3385.79,315.932,182.231,266.746,182.11,107.739,35.3591,4.41865
458.6,4712.62,459.232,4712.62,4672.86,0.0,4672.86,3533.26,402.847,216.785,306.095,92.8188,86.8372,30.2538,3.95992
458.3,3862.49,458.932,3862.49,3876.76,0.0,3876.76,2584.01,528.645,262.005,354.769,46.2495,71.341,26.1675,3.56889
458.0,3227.83,458.6318,3227.83,3211.27,0.0,3211.27,1646.73,717.803,322.675,415.94,22.4662,59.5742,22.8487,3.23291
457.7,2972.91,458.332,2972.91,3057.68,0.0,3057.68,1059.51,1013.31,406.506,494.226,10.6063,50.45,20.1181,2.94212
457.4,3364.53,458.032,3364.53,3393.98,0.0,3393.98,715.977,1486.34,526.481,596.545,4.85231,43.2439,17.8457,2.68879
457.1,4050.78,457.732,4050.78,4223.4,0.0,4223.4,508.685,2217.62,705.549,733.544,2.1457,37.4603,15.9351,2.46677
456.8,5051.59,457.432,5051.59,5448.35,0.0,5448.35,377.172,3112.49,986.396,922.038,0.915086,32.7521,14.3139,2.2711
456.5,6313.62,457.1318,6313.62,6497.88,0.0,6497.88,289.597,3523,1451.87,1189.15,0.375668,28.8708,12.9267,2.09779
456.2,7514.6,456.832,7514.6,7061.84,0.0,7061.84,228.774,2953.15,2261.09,1579.38,0.148215,25.6351,11.7308,1.94355
455.9,8768.07,456.532,8768.07,8092.68,0.0,8092.68,184.998,2059.29,3645.87,2167.06,0.0561214,22.9104,10.6927,1.80569
455.6,9985.8,456.232,9985.8,10053.6,0.0,10053.6,152.529,1379.69,5410.62,3078.67,0.0203702,20.5954,9.78605,1.68198
455.3,11192.4,455.932,11192.4,11380.1,0.0,11380.1,127.827,946.787,5751.05,4525.25,0.00708028,18.6122,8.98954,1.57055
455.0,11942.8,455.6318,11942.8,11706.9,0.0,11706.9,108.621,675.759,4141.45,6754.42,0.00235456,16.9007,8.28612,1.46982
454.7,11808,455.332,11808,12385.3,0.0,12385.3,93.4067,501.091,2580.23,9186.13,0.000748585,15.4138,7.66187,1.37846
454.4,10723.1,455.032,10723.1,10354.7,0.0,10354.7,81.1576,384.072,1633.49,8233.43,0.00022738,14.1139,7.10539,1.29536
454.1,6096.11,454.732,6096.11,5529.38,0.0,5529.38,71.1549,302.67,1092.51,4042.25,6.59458e-05,12.971,6.60723,1.21955
453.8,1747.52,454.432,1747.52,2572.92,0.0,2572.92,62.884,244.118,771.016,1475.63,1.82524e-05,11.9611,6.15954,1.1502
453.5,664.496,454.1318,664.496,1339.72,0.0,1339.72,55.969,200.761,569.095,495.99,4.81897e-06,11.0642,5.75575,1.08659
453.2,485.638,453.832,485.638,829.367,0.0,829.367,50.1302,167.844,435.563,159.147,1.21313e-06,10.2642,5.39031,1.02811
452.9,332.893,453.532,332.893,594.499,0.0,594.499,45.1561,142.308,343.276,48.1782,2.91088e-07,9.54773,5.05852,0.974227
452.6,279.801,453.232,279.801,468.221,0.0,468.221,40.8847,122.125,277.096,13.5302,6.65523e-08,8.90348,4.75639,0.924468
452.3,206.596,452.932,206.596,388.407,0.0,388.407,37.19,105.912,228.148,3.47588,1.44942e-08,8.32214,4.48049,0.878423
452.0,131.695,452.6318,131.695,331.329,0.0,331.329,33.973,92.6995,190.989,0.808136,3.0061e-09,7.79578,4.22787,0.835732
451.7,112.364,452.332,112.364,287.377,0.0,287.377,31.1549,81.7964,162.148,0.168678,5.9359e-10,7.31771,3.99599,0.796077
451.4,48.738,452.032,48.738,252.159,0.0,252.159,28.6726,72.6976,139.333,0.0314141,1.11571e-10,6.88221,3.78264,0.759178
451.1,52.0656,451.732,52.0656,223.29,0.0,223.29,26.4749,65.0281,120.986,0.00519548,1.99582e-11,6.48437,3.58591,0.724784
450.8,90.4152,451.432,90.4152,199.262,0.0,199.262,24.52,58.5051,106.019,0.000760238,3.39624e-12,6.11999,3.40412,0.692674
450.5,25.0,451.1318,25.0,179.023,0.0,179.023,22.7735,52.912,93.6535,9.81328e-05,5.51151e-13,5.78543,3.23579,0.662651
450.2,99.0,450.832,99.0,161.802,0.0,161.802,21.2068,48.0809,83.3224,1.11476e-05,8.34391e-14,5.47752,3.07962,0.634537
450.0,80.0,450.6318,80.0,151.704,0.0,151.704,20.2503,45.2172,77.3526,2.43318e-06,2.4716e-14,5.28568,2.9817,0.616777