File: XPS/LG4X-result/MX-HT-0.5-Ti2p.csv
#No of rows lightened (2D detector)1(if not using 2D detector, value is 1 and can be ignored!)
raw_x,raw_y,corrected x,data-bg,sum_components,bg,sum_fit,Ti-C,Ti 2+,Ti 3+,TiO2,Ti-C(1/2),Ti 2+(1/2),Ti 3+(1/2)
467.3,6895.0,467.944,5.0,-6822.52,6890.0,67.48,24.8277,2.80177e-138,9.43589e-41,39.568,6.21505e-18,7.00954e-05,3.08428
467.0,6934.0,467.6439,44.1757,-6812.79,6889.82,77.0362,26.0282,2.61869e-131,1.95413e-38,42.4492,3.54993e-16,0.000441407,8.55841
466.7,6953.0,467.3439,64.1489,-6794.44,6888.85,94.4137,27.3178,1.63078e-124,3.4988e-36,45.6556,1.69689e-14,0.0025086,21.4377
466.4,7073.0,467.044,187.249,-6759.32,6885.75,126.431,28.7058,6.7665e-118,5.41603e-34,49.2379,6.78808e-13,0.0128667,48.4744
466.1,7090.0,466.7439,207.649,-6699.89,6882.35,182.463,30.2022,1.87065e-111,7.24838e-32,53.2568,2.27248e-11,0.0595585,98.9447
465.8,7087.0,466.444,209.442,-6605.39,6877.56,272.168,31.8187,3.44572e-105,8.38682e-30,57.7859,6.36664e-10,0.248808,182.314
465.5,7286.0,466.1439,417.202,-6468.13,6868.8,400.667,33.5684,4.22888e-99,8.38977e-28,62.9149,1.49273e-08,0.938052,303.246
465.2,7498.0,465.8439,640.165,-6295.1,6857.83,562.733,35.4665,3.45804e-93,7.25604e-26,68.7539,2.92893e-07,3.19178,455.32
464.9,7592.0,465.544,752.044,-6100.04,6839.96,739.914,37.5302,1.88405e-87,5.42558e-24,75.4393,4.80947e-06,9.80124,617.144
464.6,7691.0,465.2439,869.812,-5916.01,6821.19,905.181,39.7792,6.83936e-82,3.50743e-22,83.1415,6.60913e-05,27.1627,755.097
464.3,7896.0,464.944,1098.33,-5761.42,6797.67,1036.25,42.2366,1.65423e-76,1.96033e-20,92.0759,0.000760065,67.937,834.001
464.0,7846.0,464.6439,1074.09,-5639.58,6771.91,1132.33,44.9287,2.66585e-71,9.47252e-19,102.517,0.00731502,153.35,831.529
463.7,7937.0,464.3439,1194.01,-5519.43,6742.99,1223.56,47.8865,2.86242e-66,3.9573e-17,114.821,0.0589168,312.394,748.403
463.4,8202.0,464.044,1490.06,-5348.55,6711.94,1363.38,51.1461,2.04782e-61,1.42932e-15,129.452,0.397118,574.334,608.052
463.1,8345.0,463.7439,1668.08,-5074,6676.92,1602.92,54.7499,9.76128e-57,4.46329e-14,147.026,2.23997,952.949,445.957
462.8,8570.0,463.444,1937.42,-4672.65,6632.58,1959.93,58.7481,3.10014e-52,1.20497e-12,168.377,10.5719,1426.98,295.252
462.5,9047.0,463.1439,2467.08,-4175.44,6579.92,2404.48,63.2005,6.56016e-48,2.81253e-11,194.647,41.7272,1928.45,176.457
462.2,9403.0,462.8439,2884.99,-3637.66,6518.01,2880.35,68.1783,9.24925e-44,5.67564e-10,227.434,137.514,2352.02,95.1994
461.9,9885.0,462.544,3441.8,-3088.3,6443.2,3354.9,73.7677,8.68875e-40,9.90211e-09,269.021,376.835,2588.91,46.3634
461.6,10180.0,462.244,3825.22,-2508.27,6354.78,3846.51,80.0728,5.43834e-36,1.49361e-07,322.747,851.514,2571.79,20.3828
461.3,10531.0,461.944,4274.63,-1897.15,6256.37,4359.22,87.2212,2.26796e-32,1.9478e-06,393.615,1564.62,2305.67,8.08909
461.0,11038.0,461.6439,4893.01,-1398.02,6144.99,4746.97,95.3701,6.30176e-29,2.19608e-05,489.327,2293.85,1865.52,2.8979
460.7,10619.0,461.3439,4587.77,-1315.53,6031.23,4715.7,104.715,1.16667e-25,0.000214066,622.038,2625.79,1362.22,0.937158
460.4,10215.0,461.044,4292.76,-1800.01,5922.24,4122.22,115.501,1.4391e-22,0.00180403,811.335,2297.4,897.713,0.273584
460.1,9216.0,460.744,3385.02,-2572.32,5830.98,3258.66,128.041,1.18276e-19,0.0131443,1088.88,1507.75,533.912,0.0720966
459.8,8555.0,460.444,2796.61,-3094.63,5758.39,2663.76,142.735,6.47676e-17,0.0827995,1503.44,730.909,286.579,0.0171509
459.5,8640.0,460.1439,2949.01,-3018.06,5690.99,2672.93,160.105,2.36308e-14,0.450936,2114.94,258.61,138.823,0.00368304
459.2,9168.0,459.8439,3552.51,-2376.85,5615.49,3238.64,180.84,5.74458e-12,2.12324,2928.81,66.1804,60.6908,0.000713957
458.9,9891.0,459.544,4370.97,-1578.94,5520.03,3941.09,205.865,9.30457e-10,8.64328,3690.47,12.1661,23.9456,0.000124935
458.6,10063.0,459.244,4650.1,-1310.71,5412.9,4102.19,236.441,1.00414e-07,30.4197,3825.21,1.59841,8.52653,1.97354e-05
458.3,9112.0,458.944,3801.49,-1743.83,5310.51,3566.68,274.316,7.2202e-06,92.5612,3196.91,0.149504,2.74007,2.8142e-06
458.0,8393.0,458.6439,3167.9,-2306.46,5225.1,2918.63,321.96,0.00034591,243.5,2352.37,0.00992579,0.79468,3.62251e-07
457.7,8066.0,458.3439,2913.71,-2544.01,5152.29,2608.28,382.92,0.0110417,553.817,1671.32,0.000466692,0.208002,4.20932e-08
457.4,8384.0,458.044,3306.12,-2324.97,5077.88,2752.92,462.393,0.234838,1089,1201.24,1.55122e-05,0.0491342,4.41531e-09
457.1,8984.0,457.744,3993.55,-1680.72,4990.45,3309.73,568.153,3.32782,1851.36,886.882,3.63985e-07,0.0104747,4.18079e-10
456.8,9879.0,457.444,4996.17,-744.059,4882.83,4138.77,712.168,31.4202,2721.12,674.064,6.02236e-09,0.00201533,3.57357e-11
456.5,11010.0,457.1439,6260.8,346.065,4749.2,5095.26,913.607,197.659,3457.81,526.189,7.01979e-11,0.000349938,2.75736e-12
456.2,12050.0,456.8439,7465.36,1668.1,4584.64,6252.74,1204.95,828.485,3798.84,420.469,5.76011e-13,5.48376e-05,1.92058e-13
455.9,13115.0,456.544,8723.32,3518.57,4391.68,7910.25,1645.46,2313.72,3608.26,342.811,3.32519e-15,7.75549e-06,1.20758e-14
455.6,14115.0,456.244,9946.53,5737.21,4168.47,9905.69,2353.04,4305.22,2963.07,284.354,1.34976e-17,9.8988e-07,6.8541e-16
455.3,15078.0,455.944,11159.5,7339.99,3918.51,11258.5,3577.91,5337.51,2103.69,239.386,3.85083e-20,1.14025e-07,3.51181e-17
455.0,15559.0,455.6439,11917.2,8045.78,3641.79,11687.6,5783.16,4409,1291.28,204.128,7.7254e-23,1.18538e-08,1.62427e-18
454.7,15149.0,455.3439,11790.1,8705.32,3358.87,12064.2,8776.3,2426.62,685.257,176.015,1.07846e-25,1.11214e-09,6.7816e-20
454.4,13801.0,455.044,10712.7,6903.85,3088.29,9992.14,8634.62,889.858,314.401,153.263,1.73872e-28,9.4168e-11,2.55596e-21
454.1,8969.0,454.744,6091.65,2188.4,2877.35,5065.75,4589.01,217.42,124.713,134.607,0.0,7.19599e-12,8.69607e-23
453.8,4538.0,454.444,1745.44,-766.739,2792.56,2025.82,1828.52,35.3945,42.7696,119.129,0.0,4.96273e-13,2.67079e-24
453.5,3429.0,454.1439,663.152,-1920.78,2765.85,845.067,722.394,3.83912,12.6811,106.153,0.0,3.08882e-14,7.40461e-26
453.2,3237.0,453.8439,484.657,-2356.97,2752.34,395.37,296.671,0.277451,3.25067,95.1705,0.0,1.73503e-15,1.85316e-27
452.9,3076.0,453.544,332.139,-2533.12,2743.86,210.737,124.206,0.0133598,0.720422,85.7968,0.0,8.79561e-17,4.18669e-29
452.6,3016.0,453.244,279.236,-2607.03,2736.76,129.73,51.8575,0.000428619,0.138038,77.7341,0.0,4.02408e-18,8.53838e-31
452.3,2938.0,452.944,206.162,-2639.82,2731.84,92.0134,21.2402,9.16226e-06,0.0228668,70.7504,0.0,1.66154e-19,1.57191e-32
452.0,2859.0,452.6439,131.374,-2654.52,2727.63,73.1009,8.43539,1.30494e-07,0.00327499,64.6623,0.0,6.19151e-21,2.61233e-34
451.7,2837.0,452.3439,112.115,-2662.34,2724.88,62.5451,3.22095,1.23834e-09,0.000405518,59.3238,0.0,2.08221e-22,3.91899e-36
451.4,2770.0,452.044,48.5855,-2665.62,2721.41,55.7923,1.17512,7.82974e-12,4.34118e-05,54.6172,0.0,6.31971e-24,5.30723e-38
451.1,2771.0,451.744,51.9797,-2668.17,2719.02,50.8547,0.407702,3.29848e-14,4.01793e-06,50.447,0.0,1.73106e-25,6.48797e-40
450.8,2807.0,451.444,90.3979,-2669.73,2716.6,46.869,0.13402,9.25844e-17,3.21509e-07,46.735,0.0,4.27926e-27,7.15974e-42
450.5,2741.0,451.1439,25.0,-2672.54,2716.0,43.4583,0.0416204,1.7315e-19,2.22423e-08,43.4167,0.0,9.54703e-29,7.13235e-44
450.2,2815.0,450.8439,99.0,-2675.55,2716.0,40.4507,0.0121825,2.15756e-22,1.33035e-09,40.4385,0.0,1.92225e-30,6.4138e-46
450.0,2796.0,450.6439,80.0,-2677.38,2716.0,38.6247,0.00519197,1.99384e-24,1.87661e-10,38.6195,0.0,1.34385e-31,2.62024e-47