File: XPS/LG4X-result/MX-HT-0.5-Ti2p_3.csv
#No of rows lightened (2D detector)1(if not using 2D detector, value is 1 and can be ignored!)
raw_x,raw_y,corrected x,data-bg,sum_components,bg,sum_fit,C_1,C_2,C_3,C_4,C_5,C_6,C_7,C_8
470.0,366.0,470.6318,366.0,151.782,0.0,151.782,13.2719,10.5579,10.9257,20.4576,78.3116,8.26145,8.33875,1.65688
469.7,415.0,470.332,415.0,160.881,0.0,160.881,14.0042,11.0428,11.3883,21.2757,83.442,8.85375,9.03342,1.84037
469.4,363.0,470.0318,363.0,170.863,0.0,170.863,14.7988,11.5619,11.881,22.1439,89.0908,9.51188,9.81828,2.05603
469.1,313.0,469.7318,313.0,181.851,0.0,181.851,15.6628,12.1183,12.4062,23.0664,95.3297,10.2459,10.7096,2.31184
468.8,140.0,469.432,140.0,193.992,0.0,193.992,16.6047,12.7159,12.9671,24.0476,102.243,11.068,11.7274,2.61839
468.5,212.0,469.1318,212.0,207.464,0.0,207.464,17.634,13.3587,13.5668,25.0928,109.932,11.9928,12.8966,2.98999
468.2,195.0,468.832,195.0,222.478,0.0,222.478,18.7618,14.0515,14.2091,26.2076,118.515,13.0378,14.2488,3.44635
467.9,87.0,468.5318,87.0,239.297,0.0,239.297,20.0013,14.7995,14.898,27.3984,128.136,14.225,15.8237,4.01523
467.6,104.403,468.2318,104.403,258.244,0.0,258.244,21.3675,15.6088,15.6383,28.6721,138.967,15.5811,17.673,4.73667
467.3,63.83,467.932,63.83,279.727,0.0,279.727,22.8783,16.4862,16.4351,30.0367,151.218,17.1395,19.8635,5.67013
467.0,104.399,467.6318,104.399,304.269,0.0,304.269,24.5548,17.4396,17.2943,31.501,165.146,18.9424,22.4837,6.90683
466.7,125.756,467.332,125.756,332.554,0.0,332.554,26.4222,18.478,18.2226,33.075,181.068,21.0431,25.6527,8.59234
466.4,250.21,467.0318,250.21,365.51,0.0,365.51,28.5103,19.6119,19.2276,34.7699,199.378,23.5105,29.5328,10.9699
466.1,271.986,466.7318,271.986,404.45,0.0,404.45,30.8555,20.8531,20.3181,36.5984,220.571,26.4344,34.3502,14.4695
465.8,275.147,466.432,275.147,451.336,0.0,451.336,33.5013,22.2157,21.5038,38.5749,245.276,29.9333,40.4271,19.9041
465.5,484.191,466.1318,484.191,509.373,0.0,509.373,36.5015,23.7161,22.7964,40.7158,274.298,34.1665,48.2332,28.9453
465.2,708.405,465.832,708.405,584.438,0.0,584.438,39.922,25.3734,24.2089,43.0399,308.682,39.3515,58.4723,45.3882
464.9,821.361,465.5318,821.361,688.98,0.0,688.98,43.8447,27.2102,25.7567,45.5685,349.797,45.7911,72.2315,78.7807
464.6,940.204,465.2318,940.204,851.123,0.0,851.123,48.3726,29.2534,27.4576,48.3265,399.457,53.916,91.2458,153.094
464.3,1169.69,464.932,1169.69,1090.56,0.0,1090.56,53.6362,31.5348,29.3324,51.3424,460.088,64.3535,118.382,281.887
464.0,1146.36,464.6318,1146.36,1218.84,0.0,1218.84,59.8029,34.093,31.4056,54.6493,534.952,78.0414,158.534,267.361
463.7,1267.13,464.332,1267.13,1281.77,0.0,1281.77,67.0905,36.9744,33.7062,58.286,628.439,96.4227,220.21,140.644
463.4,1563.99,464.0318,1563.99,1473.75,0.0,1473.75,75.7858,40.2356,36.2686,62.2975,746.414,121.787,317.741,73.2215
463.1,1742.71,463.7318,1742.71,1803.66,0.0,1803.66,86.2732,43.9461,39.134,66.7374,896.572,157.883,470.347,42.7691
462.8,2012.52,463.432,2012.52,2265.25,0.0,2265.25,99.0758,48.192,42.3521,71.6686,1088.68,211.001,676.716,27.5614
462.5,2542.39,463.1318,2542.39,2768.22,0.0,2768.22,114.921,53.081,45.9829,77.1663,1334.36,291.751,831.86,19.0981
462.2,2960.26,462.832,2960.26,3173.04,0.0,3173.04,134.84,58.7488,50.1001,83.3206,1645.5,416.912,769.649,13.9632
461.9,3516.65,462.532,3516.65,3581.05,0.0,3581.05,160.335,65.3689,54.7941,90.2401,2029.26,605.205,565.219,10.6327
461.6,3899.24,462.232,3899.24,4131.77,0.0,4131.77,193.653,73.1658,60.1777,98.0569,2474.33,841.169,382.859,8.35705
461.3,4347.5,461.932,4347.5,4674.39,0.0,4674.39,238.266,82.4331,66.3922,106.933,2920.35,992.01,261.274,6.73644
461.0,4964.33,461.6318,4964.33,4888.55,0.0,4888.55,299.736,93.5614,73.6172,117.067,3213.5,900.876,184.651,5.54291
460.7,4657.44,461.332,4657.44,4636.7,0.0,4636.7,387.335,107.078,82.0829,128.71,3122.28,669.008,135.563,4.63925
460.4,4360.87,461.032,4360.87,3993.01,0.0,3993.01,517.226,123.711,92.089,142.174,2548.4,462.489,102.982,3.93902
460.1,3452.05,460.732,3452.05,3263.38,0.0,3263.38,718.79,144.478,104.031,157.86,1733,321.294,80.5352,3.38563
459.8,2863.09,460.432,2863.09,2829.16,0.0,2829.16,1046.86,170.846,118.437,176.281,1019.14,230.13,64.5318,2.94084
459.5,3015.08,460.1318,3015.08,2907.24,0.0,2907.24,1598.87,204.976,136.032,198.111,543.275,170.618,52.7752,2.57806
459.2,3617.92,459.832,3617.92,3568.62,0.0,3568.62,2488.68,250.145,157.818,224.24,270.993,130.557,43.9114,2.27834
458.9,4435.13,459.532,4435.13,4539.15,0.0,4539.15,3516.39,311.488,185.224,255.871,128.413,102.662,37.0772,2.0279
458.6,4712.62,459.232,4712.62,4747.84,0.0,4747.84,3661.3,397.334,220.336,294.651,58.0943,82.6132,31.7047,1.81653
458.3,3862.49,458.932,3862.49,3969.8,0.0,3969.8,2716.99,521.701,266.282,342.891,25.095,67.7908,27.4091,1.6365
458.0,3227.83,458.6318,3227.83,3290.05,0.0,3290.05,1756.96,708.97,327.918,403.906,10.3314,56.5589,23.9234,1.48193
457.7,2972.91,458.332,2972.91,3113.07,0.0,3113.07,1140.96,1002.16,413.068,482.572,4.04364,47.8633,21.0576,1.34824
457.4,3364.53,458.032,3364.53,3431.9,0.0,3431.9,775.237,1473.09,534.9,586.263,1.50082,41.0042,18.6741,1.23183
457.1,4050.78,457.732,4050.78,4254.57,0.0,4254.57,552.613,2205.03,716.671,726.424,0.526999,35.5046,16.671,1.12986
456.8,5051.59,457.432,5051.59,5487.93,0.0,5487.93,410.606,3107.27,1001.6,921.243,0.17471,31.0311,14.972,1.04003
456.5,6313.62,457.1318,6313.62,6554.76,0.0,6554.76,315.712,3523.59,1473.39,1200.19,0.054584,27.3457,13.5188,0.960494
456.2,7514.6,456.832,7514.6,7137.34,0.0,7137.34,249.648,2946.08,2292.29,1611.87,0.0160463,24.2749,12.2664,0.889736
455.9,8768.07,456.532,8768.07,8209.93,0.0,8209.93,202.019,2046.15,3689.84,2238.22,0.00443258,21.6904,11.1796,0.826511
455.6,9985.8,456.232,9985.8,10247.7,0.0,10247.7,166.65,1366.74,5463.93,3219.86,0.00114923,19.4952,10.2305,0.769789
455.3,11192.4,455.932,11192.4,11691.7,0.0,11691.7,139.717,936.09,5805.27,4782.88,0.000279376,17.6153,9.39693,0.718707
455.0,11942.8,455.6318,11942.8,12071.4,0.0,12071.4,118.761,667.319,4188.83,7071.16,6.36237e-05,15.9934,8.66091,0.672543
454.7,11808,455.332,11808,11932.9,0.0,11932.9,102.151,494.449,2614.81,8698.32,1.35633e-05,14.5846,8.00784,0.630685
454.4,10723.1,455.032,10723.1,8352.24,0.0,8352.24,88.773,378.784,1657.33,6205.98,2.70482e-06,13.3534,7.42574,0.592614
454.1,6096.11,454.732,6096.11,4138.75,0.0,4138.75,77.8442,298.395,1109.19,2633.58,5.04291e-07,12.271,6.90472,0.557887
453.8,1747.52,454.432,1747.52,2040.4,0.0,2040.4,68.805,240.607,783.107,929.599,8.78555e-08,11.3147,6.43653,0.526124
453.5,664.496,454.1318,664.496,1165.32,0.0,1165.32,61.2457,197.836,578.165,311.093,1.42955e-08,10.4656,6.01429,0.496996
453.2,485.638,453.832,485.638,778.177,0.0,778.177,54.8616,165.374,442.578,99.5523,2.17169e-09,9.70833,5.63219,0.470222
452.9,332.893,453.532,332.893,583.212,0.0,583.212,49.422,140.198,348.845,29.9852,3.07896e-10,9.03013,5.28531,0.445553
452.6,279.801,453.232,279.801,468.846,0.0,468.846,44.7502,120.304,281.615,8.36468,4.07241e-11,8.4204,4.96945,0.422774
452.3,206.596,452.932,206.596,392.002,0.0,392.002,40.7086,104.325,231.882,2.13372,5.02374e-12,7.87025,4.68104,0.401698
452.0,131.695,452.6318,131.695,335.283,0.0,335.283,37.1891,91.3052,194.124,0.492931,5.7728e-13,7.37219,4.41698,0.38216
451.7,112.364,452.332,112.364,291.044,0.0,291.044,34.1058,80.5622,164.815,0.102385,5.99247e-14,6.91984,4.17462,0.364012
451.4,48.738,452.032,48.738,255.442,0.0,255.442,31.3896,71.5978,141.629,0.019014,4.67566e-15,6.5078,3.95164,0.347126
451.1,52.0656,451.732,52.0656,226.222,0.0,226.222,28.9847,64.0421,122.983,0.00314358,0.0,6.13142,3.74603,0.331389
450.8,90.4152,451.432,90.4152,201.892,0.0,201.892,26.8453,57.6164,107.771,0.000461119,0.0,5.78672,3.55604,0.316697
450.5,25.0,451.1318,25.0,181.397,0.0,181.397,24.9339,52.107,95.2024,5.98488e-05,0.0,5.47024,3.38013,0.302961
450.2,99.0,450.832,99.0,163.955,0.0,163.955,23.2191,47.3483,84.7015,6.85796e-06,0.0,5.17898,3.21694,0.290099
450.0,80.0,450.6318,80.0,153.728,0.0,153.728,22.1722,44.5277,78.6336,1.50835e-06,0.0,4.99752,3.11462,0.281974