File: XPS/LG4X-result/MX-HT-0.5-Ti2p_6.csv
#No of rows lightened (2D detector)1(if not using 2D detector, value is 1 and can be ignored!)
raw_x,raw_y,corrected x,data-bg,sum_components,bg,sum_fit,TiO2,Ti 3+,Ti 2+,Ti-C,Ti-C (2p1/2),Ti 2+(2p1/2),Ti 3+(2p1/2),Ti 4+ (2p1/2)
467.8,6950.0,468.432,117.0,-6631.53,6833.0,201.469,17.3246,14.5874,16.4984,29.2359,45.5839,36.9838,24.611,16.6443
467.5,6910.0,468.1318,78.1081,-6612.79,6831.89,219.106,18.5221,15.3924,17.325,30.5844,49.5377,40.56,27.5299,19.6547
467.2,6890.0,467.832,59.3055,-6591.1,6830.69,239.597,19.848,16.2659,18.2151,32.0284,54.0207,44.6774,30.9947,23.5465
466.9,6918.0,467.5318,89.1468,-6565.14,6828.85,263.708,21.3211,17.2157,19.1756,33.5769,59.1283,49.45,35.1487,28.6921
466.6,7043.0,467.2318,217.08,-6533.39,6825.92,292.532,22.9642,18.251,20.2141,35.2405,64.9769,55.0234,40.1848,35.677
466.3,7020.0,466.932,198.945,-6493.38,6821.06,327.676,24.8043,19.3825,21.3391,37.0307,71.7095,61.5854,46.3671,45.4574
466.0,7070.0,466.6318,254.018,-6444.35,6815.98,371.63,26.8742,20.6223,22.5606,38.9608,79.5031,69.3815,54.0643,59.6628
465.7,7168.0,466.332,358.594,-6380.96,6809.41,428.448,29.2135,21.9847,23.8899,41.0457,88.5785,78.7377,63.8021,81.1953
465.4,7198.0,466.0318,399.604,-6293.32,6798.4,505.076,31.8712,23.4864,25.3401,43.3023,99.214,90.0931,76.3479,115.42
465.1,7620.0,465.7318,836.371,-6169.96,6783.63,613.666,34.9075,25.1469,26.9263,45.7502,111.764,104.05,92.8512,172.27
464.8,7639.0,465.432,874.912,-5990.92,6764.09,773.164,38.3974,26.9895,28.666,48.4113,126.687,121.451,115.083,267.479
464.5,7793.0,465.1318,1049.89,-5750.17,6743.11,992.94,42.4358,29.0417,30.5796,51.3114,144.584,143.499,145.849,405.639
464.2,7881.0,464.832,1163.7,-5519.87,6717.3,1197.43,47.1432,31.3364,32.691,54.4797,166.263,171.954,189.721,503.839
463.9,8036.0,464.5318,1345.99,-5418.57,6690.01,1271.45,52.6752,33.9133,35.0285,57.9504,192.832,209.459,254.266,435.321
463.6,8006.0,464.2318,1346.22,-5332.67,6659.78,1327.11,59.235,36.8203,37.6254,61.7632,225.85,260.092,351.816,293.908
463.3,8033.0,463.932,1406.47,-5126.12,6626.53,1500.41,67.0921,40.1162,40.5215,65.9646,267.579,330.328,500.15,188.658
463.0,8481.0,463.6318,1892.75,-4763.83,6588.25,1824.41,76.6095,43.8733,43.7645,70.609,321.404,430.722,712.297,125.131
462.7,8738.0,463.332,2196.77,-4276.11,6541.23,2265.11,88.2855,48.1812,47.4118,75.7608,392.574,578.715,947.043,87.1419
462.4,9089.0,463.032,2604.27,-3793.61,6484.73,2691.12,102.818,53.1526,51.5335,81.4968,489.519,802.475,1046.65,63.4827
462.1,9534.0,462.732,3114.72,-3372.44,6419.28,3046.83,121.208,58.9301,56.2153,87.9085,626.208,1141.27,907.071,48.0261
461.8,10130.0,462.432,3789.86,-2823.57,6340.14,3516.57,144.928,65.6968,61.563,95.1061,826.159,1617.63,668.016,37.4749
461.5,10502.0,462.1318,4252.72,-2085.32,6249.28,4163.96,176.211,73.69,67.7086,103.223,1127.22,2118.4,467.51,29.994
461.2,10749.0,461.832,4600.06,-1446.86,6148.94,4702.09,218.56,83.2225,74.8185,112.423,1574.28,2284.07,330.194,24.5168
460.9,10891.0,461.532,4855.26,-1125.75,6035.74,4909.99,277.69,94.7122,83.1045,122.906,2131.15,1939.98,240.064,20.3959
460.6,10743.0,461.232,4818.03,-1189.38,5924.97,4735.59,363.342,108.727,92.8395,134.922,2419.96,1418.4,180.178,17.2225
460.3,9886.0,460.932,4064.41,-1822.69,5821.59,3998.9,492.938,126.054,104.38,148.785,1979.2,993.576,139.235,14.7296
460.0,8916.0,460.6318,3177.66,-2538.02,5738.34,3200.32,699.093,147.808,118.199,164.891,1242.92,704.321,110.355,12.7372
459.7,8551.0,460.332,2881.28,-2803.33,5669.72,2866.39,1044.34,175.602,134.932,183.751,713.143,514.128,89.3759,11.1206
459.4,8681.0,460.032,3079.62,-2507.7,5601.38,3093.69,1639.34,211.838,155.453,206.025,410.242,387.271,73.7287,9.79157
459.1,9448.0,459.732,3927.06,-1655.42,5520.94,3865.52,2578.59,260.202,180.984,232.587,242.492,300.192,61.7845,8.68605
458.8,9910.0,459.432,4488.59,-733.998,5421.41,4687.41,3436.91,326.535,213.277,264.605,147.302,238.543,52.4801,7.75684
458.5,9900.0,459.1318,4585.53,-868.009,5314.47,4446.46,3130.34,420.439,254.906,303.671,91.4165,193.613,45.1021,6.96851
458.2,9053.0,458.832,3833.21,-1623.82,5219.79,3595.98,2112.85,558.291,309.777,351.998,57.5947,160.009,39.1597,6.29407
457.9,8274.0,458.532,3133.4,-2035.1,5140.6,3105.51,1328.94,768.873,384.007,412.734,36.6345,134.296,34.3071,5.71266
457.6,8173.0,458.232,3103.38,-1951.28,5069.62,3118.34,864.299,1102.85,487.574,490.467,23.4204,114.224,30.2956,5.20799
457.3,8573.0,457.932,3580.35,-1384.82,4992.65,3607.83,592.81,1640.47,637.478,592.085,14.9944,98.2787,26.9432,4.76716
457.0,9260.0,457.6318,4359.25,-313.701,4900.75,4587.04,426.968,2444.18,864.112,728.286,9.58578,85.4158,24.114,4.37988
456.7,10208.0,457.332,5421.04,1055.23,4786.96,5842.19,320.24,3274.42,1224.45,916.331,6.10479,74.8972,21.7052,4.03782
456.4,11447.0,457.032,6801.27,2060.89,4645.73,6706.63,248.227,3351.55,1828.18,1185.25,3.86563,66.1914,19.6381,3.73423
456.1,12470.0,456.732,7994.5,2839.74,4475.5,7315.24,197.635,2576.97,2872.31,1585.68,2.42987,58.9078,17.8513,3.46356
455.8,13541.0,456.432,9263.71,4447.34,4277.29,8724.63,160.864,1740.81,4541.84,2207.33,1.5142,52.755,16.2965,3.22123
455.5,14423.0,456.1318,10372.4,6651.49,4050.57,10702.1,133.363,1166.12,6132.7,3203.5,0.934393,47.512,14.9354,3.00342
455.2,15381.0,455.832,11583.3,7637.14,3797.67,11434.8,112.288,808.175,5655.87,4798.36,0.570439,43.0089,13.7373,2.80694
454.9,15499.0,455.532,11975.1,8149.31,3523.86,11673.2,95.8013,583.472,3825.31,7113.83,0.344244,39.1136,12.6772,2.6291
454.6,14754.0,455.232,11503,8789.73,3250.96,12040.7,82.6702,437.233,2398.72,9071.93,0.205208,35.7219,11.7348,2.46761
454.3,12877.0,454.932,9878.66,6173.77,2998.34,9172.11,72.0483,338.175,1554.67,7161.13,0.12076,32.7511,10.8934,2.32054
454.0,6979.0,454.6318,4145.67,1556.49,2833.33,4389.82,63.3383,268.55,1063.36,2952.05,0.070117,30.1345,10.1391,2.18621
453.7,4077.0,454.332,1298.28,-875.848,2778.72,1902.87,56.1097,218.005,764.247,825.124,0.0401501,27.8182,9.46027,2.06321
453.4,3386.0,454.032,626.482,-1732.2,2759.52,1027.32,50.046,180.273,572.28,188.143,0.0226637,25.7581,8.84722,1.95029
453.1,3142.0,453.732,394.035,-2038.44,2747.97,709.521,44.9109,151.426,443.031,36.085,0.0126065,23.9179,8.29174,1.84638
452.8,3039.0,453.432,298.331,-2181.3,2740.67,559.373,40.5246,128.909,352.383,5.74475,0.00690768,22.2675,7.78685,1.75055
452.5,2913.0,453.1318,178.571,-2269.56,2734.43,464.874,36.7489,111.017,286.588,0.745673,0.00372748,20.7817,7.32661,1.66198
452.2,2911.0,452.832,181.093,-2334.42,2729.91,395.491,33.4756,96.5764,237.434,0.0777503,0.00198028,19.4394,6.90592,1.57996
451.9,2879.0,452.532,152.794,-2384.77,2726.21,341.437,30.6199,84.7593,199.803,0.00643891,0.00103553,18.2228,6.52037,1.50386
451.6,2899.0,452.232,175.475,-2425.34,2723.52,298.188,28.1136,74.9712,170.386,0.000419931,0.000532873,17.1166,6.16618,1.43313
451.3,2867.0,451.932,146.492,-2457.54,2720.51,262.966,25.9022,66.7758,146.973,2.14285e-05,0.00026979,16.108,5.84002,1.36726
451.0,2787.0,451.6318,68.5313,-2484.61,2718.47,233.863,23.9413,59.8472,128.044,8.51332e-07,0.000134366,15.1857,5.53904,1.30583
450.7,2777.0,451.332,61.0,-2506.49,2716.0,209.513,22.1945,53.9383,112.531,2.62308e-08,6.58179e-05,14.3403,5.26069,1.24845
450.4,2842.0,451.032,126.0,-2527.09,2716.0,188.913,20.6317,48.8595,99.6609,6.24875e-10,3.17044e-05,13.5635,5.00279,1.19476
450.1,2808.0,450.732,92.0,-2544.68,2716.0,171.316,19.2281,44.4628,88.8697,1.14822e-11,1.50161e-05,12.848,4.76336,1.14447
450.0,2796.0,450.6318,80.0,-2549.98,2716.0,166.016,18.7919,43.1279,85.6582,2.85617e-12,1.16608e-05,12.622,4.68736,1.1284