File: XPS/LG4X-result/MX-HT-0.5-Ti2p_4.csv
#No of rows lightened (2D detector)1(if not using 2D detector, value is 1 and can be ignored!)
raw_x,raw_y,corrected x,data-bg,sum_components,bg,sum_fit,C_1,C_2,C_3,C_4,C_5,C_6,C_7,C_8
470.0,366.0,470.6318,366.0,142.991,0.0,142.991,11.6575,9.59053,12.2061,27.9801,55.954,12.3294,9.18348,4.0902
469.7,415.0,470.332,415.0,151.467,0.0,151.467,12.3009,10.031,12.7229,29.0763,59.636,13.2122,9.9473,4.54094
469.4,363.0,470.0318,363.0,160.778,0.0,160.778,12.999,10.5025,13.2731,30.2381,63.6924,14.1929,10.8101,5.07017
469.1,313.0,469.7318,313.0,171.045,0.0,171.045,13.7582,11.008,13.8598,31.4708,68.1753,15.2865,11.7895,5.69713
468.8,140.0,469.432,140.0,182.416,0.0,182.416,14.5857,11.5509,14.4862,32.7805,73.1466,16.511,12.9076,6.44732
468.5,212.0,469.1318,212.0,195.069,0.0,195.069,15.4902,12.1349,15.1561,34.1736,78.6795,17.8881,14.1916,7.35507
468.2,195.0,468.832,195.0,209.225,0.0,209.225,16.4813,12.7642,15.8734,35.6573,84.8615,19.4439,15.6758,8.46743
467.9,87.0,468.5318,87.0,225.159,0.0,225.159,17.5705,13.4438,16.6429,37.2397,91.7974,21.2106,17.4036,9.8503
467.6,104.403,468.2318,104.403,243.221,0.0,243.221,18.7711,14.179,17.4697,38.9297,99.6145,23.228,19.4311,11.5981
467.3,63.83,467.932,63.83,263.865,0.0,263.865,20.0989,14.9761,18.3596,40.7373,108.467,25.5453,21.8311,13.8496
467.0,104.399,467.6318,104.399,287.693,0.0,287.693,21.5725,15.8422,19.3191,42.6737,118.546,28.2248,24.6995,16.8156
466.7,125.756,467.332,125.756,315.529,0.0,315.529,23.2138,16.7856,20.3558,44.7513,130.086,31.3451,28.1649,20.8272
466.4,250.21,467.0318,250.21,348.544,0.0,348.544,25.0494,17.8157,21.4782,46.9842,143.38,35.0078,32.4028,26.4264
466.1,271.986,466.7318,271.986,388.481,0.0,388.481,27.111,18.9434,22.6959,49.3883,158.799,39.3444,37.6564,34.5432
465.8,275.147,466.432,275.147,438.096,0.0,438.096,29.4373,20.1814,24.02,51.9815,176.813,44.5291,44.2707,46.8627
465.5,484.191,466.1318,484.191,502.059,0.0,502.059,32.0753,21.5445,25.4632,54.7842,198.028,50.7946,52.7464,66.6227
465.2,708.405,465.832,708.405,588.884,0.0,588.884,35.0832,23.0503,27.0404,57.8194,223.225,58.4582,63.8286,100.379
464.9,821.361,465.5318,821.361,714.576,0.0,714.576,38.5333,24.7191,28.7686,61.1137,253.427,67.9597,78.658,161.396
464.6,940.204,465.2318,940.204,902.865,0.0,902.865,42.5163,26.5755,30.6675,64.6973,289.981,79.9222,99.034,269.471
464.3,1169.69,464.932,1169.69,1133.78,0.0,1133.78,47.1473,28.6484,32.7605,68.605,334.668,95.2475,127.881,398.826
464.0,1146.36,464.6318,1146.36,1253.54,0.0,1253.54,52.574,30.9729,35.0749,72.877,389.862,115.274,170.067,386.833
463.7,1267.13,464.332,1267.13,1295.85,0.0,1295.85,58.9887,33.5911,37.643,77.5601,458.745,142.041,233.741,253.538
463.4,1563.99,464.0318,1563.99,1434.37,0.0,1434.37,66.6449,36.5545,40.5031,82.7086,545.608,178.741,331.737,151.869
463.1,1742.71,463.7318,1742.71,1708.66,0.0,1708.66,75.8821,39.9263,43.7011,88.386,656.292,230.502,478.79,95.1802
462.8,2012.52,463.432,2012.52,2107.4,0.0,2107.4,87.1637,43.7848,47.2924,94.6673,798.808,305.692,666.337,63.6557
462.5,2542.39,463.1318,2542.39,2548.86,0.0,2548.86,101.133,48.2279,51.3439,101.641,984.191,417.816,799.447,45.0572
462.2,2960.26,462.832,2960.26,2931.67,0.0,2931.67,118.707,53.3791,55.9375,109.412,1227.41,586.595,746.846,33.378
461.9,3516.65,462.532,3516.65,3349.03,0.0,3349.03,141.219,59.3962,61.174,118.108,1547.29,829.648,566.559,25.6364
461.6,3899.24,462.232,3899.24,3926.08,0.0,3926.08,170.672,66.4834,67.1789,127.879,1961.04,1117.16,395.398,20.2694
461.3,4347.5,461.932,4347.5,4540.78,0.0,4540.78,210.166,74.9079,74.1093,138.91,2459.15,1291.73,275.396,16.4081
461.0,4964.33,461.6318,4964.33,4913.5,0.0,4913.5,264.692,85.0252,82.1648,151.426,2932.37,1187.08,197.194,13.5434
460.7,4657.44,461.332,4657.44,4847.52,0.0,4847.52,342.614,97.3159,91.6015,165.707,3083.72,909.199,146.004,11.3624
460.4,4360.87,461.032,4360.87,4257.42,0.0,4257.42,458.628,112.441,102.752,182.097,2633.7,646.595,111.544,9.66528
460.1,3452.05,460.732,3452.05,3451.66,0.0,3451.66,639.789,131.331,116.055,201.032,1809.37,458.195,87.5731,8.31958
459.8,2863.09,460.432,2863.09,2933.11,0.0,2933.11,937.622,155.321,132.098,223.063,1074.92,332.489,70.3682,7.2351
459.5,3015.08,460.1318,3015.08,2942.25,0.0,2942.25,1447.26,186.383,151.68,248.899,595.375,248.634,57.6673,6.34868
459.2,3617.92,459.832,3617.92,3539.88,0.0,3539.88,2291.96,227.508,175.913,279.464,319.998,191.367,48.0567,5.61507
458.9,4435.13,459.532,4435.13,4476.71,0.0,4476.71,3304.99,283.39,206.375,315.975,169.262,151.095,40.6263,5.00118
458.6,4712.62,459.232,4712.62,4667.77,0.0,4667.77,3451.19,361.655,245.364,360.065,88.2998,121.945,34.7724,4.4824
458.3,3862.49,458.932,3862.49,3878.66,0.0,3878.66,2513.47,475.162,296.319,413.962,45.3298,100.284,30.084,4.0401
458.0,3227.83,458.6318,3227.83,3223.46,0.0,3223.46,1595.22,646.358,364.561,480.762,22.8209,83.8073,26.2743,3.66001
457.7,2972.91,458.332,2972.91,3071.01,0.0,3071.01,1023.74,915.058,458.626,564.87,11.2276,71.0135,23.1386,3.33101
457.4,3364.53,458.032,3364.53,3394.48,0.0,3394.48,690.77,1348.37,592.787,672.699,5.3811,60.8985,20.5282,3.04436
457.1,4050.78,457.732,4050.78,4198.75,0.0,4198.75,490.333,2026.13,792.022,813.857,2.50556,52.7735,18.3327,2.7931
456.8,5051.59,457.432,5051.59,5403.76,0.0,5403.76,363.357,2868.79,1102.1,1003.18,1.13077,46.1547,16.4693,2.57165
456.5,6313.62,457.1318,6313.62,6471.77,0.0,6471.77,278.884,3260.35,1609.68,1264.42,0.493668,40.6953,14.8746,2.37548
456.2,7514.6,456.832,7514.6,7100.71,0.0,7100.71,220.253,2717.66,2473.73,1637.01,0.208141,36.1419,13.4996,2.2009
455.9,8768.07,456.532,8768.07,8193.05,0.0,8193.05,178.073,1878.57,3900.55,2189.13,0.0846314,32.3063,12.3059,2.04485
455.6,9985.8,456.232,9985.8,10111.2,0.0,10111.2,146.799,1250.33,5629.92,3041.95,0.0331462,29.0461,11.2631,1.9048
455.3,11192.4,455.932,11192.4,11370.5,0.0,11370.5,123.012,854.433,5952.67,4401.94,0.0124915,26.2526,10.3469,1.77864
455.0,11942.8,455.6318,11942.8,11628.2,0.0,11628.2,104.521,608.252,4395.96,6484.47,0.00452569,23.8412,9.53774,1.6646
454.7,11808,455.332,11808,12133,0.0,12133,89.8747,450.278,2808.26,8752.46,0.0015751,21.7457,8.81957,1.56117
454.4,10723.1,455.032,10723.1,10688.7,0.0,10688.7,78.0845,344.737,1805.63,8430.68,0.000526254,19.9135,8.17931,1.46708
454.1,6096.11,454.732,6096.11,5828.76,0.0,5828.76,68.4576,271.46,1218.51,4243.05,0.000168688,18.3024,7.60611,1.38124
453.8,1747.52,454.432,1747.52,2186.81,0.0,2186.81,60.4981,218.823,864.565,1017.65,5.18503e-05,16.8784,7.09096,1.30271
453.5,664.496,454.1318,664.496,1027.23,0.0,1027.23,53.8439,179.884,640.309,129.719,1.52755e-05,15.6138,6.62628,1.23069
453.2,485.638,453.832,485.638,721.05,0.0,721.05,48.2255,150.342,491.168,9.45849,4.31158e-06,14.4856,6.20572,1.16447
452.9,332.893,453.532,332.893,579.381,0.0,579.381,43.4395,127.438,387.702,0.398723,1.16551e-06,13.475,5.82388,1.10345
452.6,279.801,453.232,279.801,481.079,0.0,481.079,39.3297,109.343,313.307,0.00960857,3.01645e-07,12.5663,5.47614,1.0471
452.3,206.596,452.932,206.596,406.662,0.0,406.662,35.775,94.8119,258.175,0.000130499,7.47213e-08,11.7462,5.15858,0.994957
452.0,131.695,452.6318,131.695,348.733,0.0,348.733,32.6799,82.9739,216.261,9.86741e-07,1.77111e-08,11.0037,4.86781,0.946611
451.7,112.364,452.332,112.364,302.701,0.0,302.701,29.9687,73.207,183.693,4.11395e-09,4.01605e-09,10.3292,4.60091,0.901702
451.4,48.738,452.032,48.738,265.477,0.0,265.477,27.5806,65.058,157.908,9.39433e-12,8.70976e-10,9.71476,4.35533,0.859913
451.1,52.0656,451.732,52.0656,234.918,0.0,234.918,25.4664,58.1902,137.158,0.0,1.80627e-10,9.15343,4.12887,0.820962
450.8,90.4152,451.432,90.4152,209.5,0.0,209.5,23.5857,52.3499,120.221,0.0,3.58143e-11,8.63927,3.9196,0.784596
450.5,25.0,451.1318,25.0,188.113,0.0,188.113,21.9056,47.3427,106.221,0.0,6.78761e-12,8.16716,3.72582,0.750593
450.2,99.0,450.832,99.0,169.934,0.0,169.934,20.3985,43.0181,94.52,0.0,1.22968e-12,7.73264,3.54604,0.718753
450.0,80.0,450.6318,80.0,159.284,0.0,159.284,19.4783,40.4548,87.7569,0.0,3.82835e-13,7.46192,3.43331,0.698638