File: XPS/LG4X-result/MX-UT-0.5-Cl2p.csv
#No of rows lightened (2D detector)1(if not using 2D detector, value is 1 and can be ignored!)
raw_x,raw_y,corrected x,data-bg,sum_components,bg,sum_fit,bg_shirley_,Ti-Cl,C_2
207.7,861.0,208.353,-0.989131,2.57624,861.989,864.565,861.989,1.41321,1.16303
207.6,855.0,208.253,-6.98913,2.63846,861.989,864.628,861.989,1.44426,1.1942
207.5,862.0,208.1528,0.0108687,2.70299,861.989,864.692,861.989,1.47634,1.22665
207.4,842.0,208.053,-19.9891,2.76994,861.989,864.759,861.989,1.5095,1.26044
207.3,885.0,207.953,23.0109,2.83945,861.989,864.829,861.989,1.5438,1.29564
207.2,898.0,207.853,36.0109,2.91163,861.989,864.901,861.989,1.57928,1.33235
207.1,860.0,207.753,-1.98913,2.98665,861.989,864.976,861.989,1.616,1.37064
207.0,851.0,207.6528,-10.9891,3.06464,861.989,865.054,861.989,1.65402,1.41062
206.9,837.0,207.553,-24.9891,3.14577,861.989,865.135,861.989,1.6934,1.45237
206.8,863.0,207.453,1.01087,3.23021,861.989,865.219,861.989,1.73421,1.496
206.7,885.0,207.353,23.0109,3.31815,861.989,865.307,861.989,1.77651,1.54164
206.6,812.0,207.253,-49.9891,3.40978,861.989,865.399,861.989,1.82038,1.58941
206.5,853.0,207.1528,-8.98913,3.50532,861.989,865.494,861.989,1.86589,1.63943
206.4,840.0,207.053,-21.9891,3.60501,861.989,865.594,861.989,1.91314,1.69186
206.3,817.0,206.953,-44.9891,3.70907,861.989,865.698,861.989,1.96221,1.74686
206.2,869.0,206.853,7.01087,3.81779,861.989,865.807,861.989,2.0132,1.80459
206.1,885.0,206.753,23.0109,3.93145,861.989,865.921,861.989,2.0662,1.86524
206.0,883.0,206.6528,21.0109,4.05035,861.989,866.039,861.989,2.12133,1.92902
205.9,856.0,206.553,-5.98913,4.17483,861.989,866.164,861.989,2.1787,1.99613
205.8,903.0,206.453,41.0109,4.30525,861.989,866.294,861.989,2.23844,2.06681
205.7,865.0,206.353,3.01087,4.44201,861.989,866.431,861.989,2.30067,2.14134
205.6,834.0,206.253,-27.9891,4.58552,861.989,866.575,861.989,2.36554,2.21998
205.5,868.0,206.1528,6.01087,4.73626,861.989,866.725,861.989,2.4332,2.30306
205.4,862.0,206.053,0.0108686,4.89472,861.989,866.884,861.989,2.50381,2.39091
205.3,898.0,205.953,36.0109,5.06145,861.989,867.051,861.989,2.57754,2.4839
205.2,870.0,205.853,8.01087,5.23705,861.989,867.226,861.989,2.6546,2.58246
205.1,888.0,205.753,26.0109,5.42219,861.989,867.411,861.989,2.73516,2.68702
205.0,909.0,205.6528,47.0109,5.61757,861.989,867.607,861.989,2.81947,2.79811
204.9,881.0,205.553,19.0109,5.824,861.989,867.813,861.989,2.90774,2.91626
204.8,860.0,205.453,-1.98913,6.04233,861.989,868.031,861.989,3.00023,3.04209
204.7,897.0,205.353,35.0109,6.27353,861.989,868.263,861.989,3.09723,3.1763
204.6,884.0,205.253,22.0109,6.51867,861.989,868.508,861.989,3.19902,3.31965
204.5,863.0,205.1528,1.01087,6.77891,861.989,868.768,861.989,3.30593,3.47298
204.4,876.0,205.053,14.0109,7.05557,861.989,869.045,861.989,3.4183,3.63726
204.3,880.0,204.953,18.0109,7.3501,861.989,869.339,861.989,3.53653,3.81357
204.2,886.0,204.853,24.0109,7.66412,861.989,869.653,861.989,3.66102,4.0031
204.1,868.0,204.753,6.01087,7.99946,861.989,869.989,861.989,3.79222,4.20724
204.0,896.0,204.6528,34.0109,8.35816,861.989,870.347,861.989,3.93064,4.42752
203.9,852.0,204.553,-9.98913,8.74254,861.989,870.732,861.989,4.0768,4.66573
203.8,881.0,204.453,19.0109,9.15518,861.989,871.144,861.989,4.23131,4.92387
203.7,880.0,204.353,18.0109,9.59907,861.989,871.588,861.989,4.39481,5.20426
203.6,862.0,204.253,0.0108692,10.0776,861.989,872.067,861.989,4.56802,5.50955
203.5,878.0,204.1528,16.0109,10.5945,861.989,872.584,861.989,4.75172,5.84282
203.4,882.0,204.053,20.0109,11.1544,861.989,873.144,861.989,4.94678,6.20764
203.3,856.0,203.953,-5.98913,11.7623,861.989,873.751,861.989,5.15417,6.60818
203.2,899.0,203.853,37.0109,12.4243,861.989,874.413,861.989,5.37495,7.04931
203.1,921.0,203.753,59.0109,13.1471,861.989,875.136,861.989,5.61031,7.53681
203.0,888.0,203.6528,26.0109,13.9391,861.989,875.928,861.989,5.86157,8.07751
202.9,877.0,203.553,15.0109,14.8098,861.989,876.799,861.989,6.1302,8.67961
202.8,890.0,203.453,28.0109,15.7708,861.989,877.76,861.989,6.41785,9.35294
202.7,914.0,203.353,52.0109,16.8358,861.989,878.825,861.989,6.72637,10.1095
202.6,875.0,203.253,13.0109,18.0217,861.989,880.011,861.989,7.05785,10.9638
202.5,849.0,203.1528,-12.9891,19.3488,861.989,881.338,861.989,7.41465,11.9341
202.4,882.0,203.053,20.0109,20.8424,861.989,882.832,861.989,7.79942,13.043
202.3,932.0,202.953,70.0109,22.5342,861.989,884.523,861.989,8.2152,14.319
202.2,872.0,202.853,10.0109,24.4646,861.989,886.454,861.989,8.66544,15.7992
202.1,935.0,202.753,73.0109,26.6855,861.989,888.675,861.989,9.1541,17.5314
202.0,901.0,202.6528,39.0109,29.2654,861.989,891.255,861.989,9.68572,19.5797
201.9,919.0,202.553,57.0109,32.2967,861.989,894.286,861.989,10.2655,22.0312
201.8,956.0,202.453,94.0109,35.9068,861.989,897.896,861.989,10.8997,25.0071
201.7,929.0,202.353,67.0109,40.2759,861.989,902.265,861.989,11.5952,28.6807
201.6,972.0,202.253,110.011,45.6655,861.989,907.655,861.989,12.3603,33.3051
201.5,916.0,202.1528,54.0109,52.4606,861.989,914.45,861.989,13.2049,39.2557
201.4,869.0,202.053,7.01087,61.2309,861.989,923.22,861.989,14.1405,47.0903
201.3,920.0,201.953,58.0109,72.8068,861.989,934.796,861.989,15.181,57.6258
201.2,949.0,201.853,87.0109,88.3564,861.989,950.346,861.989,16.3428,72.0136
201.1,975.0,201.753,113.011,109.416,861.989,971.406,861.989,17.646,91.7705
201.0,991.0,201.6528,129.011,137.795,861.989,999.784,861.989,19.1152,118.679
200.9,1004.0,201.553,142.011,175.222,861.989,1037.21,861.989,20.7806,154.441
200.8,1088.0,201.453,226.011,222.639,861.989,1084.63,861.989,22.6796,199.959
200.7,1117.0,201.353,255.011,279.128,861.989,1141.12,861.989,24.8597,254.268
200.6,1196.0,201.253,334.011,340.756,861.989,1202.75,861.989,27.3816,313.375
200.5,1267.0,201.1528,405.011,399.98,861.989,1261.97,861.989,30.3237,369.657
200.4,1336.0,201.053,474.011,446.437,861.989,1308.43,861.989,33.7902,412.647
200.3,1339.0,200.953,477.011,469.584,861.989,1331.57,861.989,37.9215,431.663
200.2,1335.0,200.853,473.011,462.606,861.989,1324.6,861.989,42.9115,419.695
200.1,1290.0,200.753,428.011,425.808,861.989,1287.8,861.989,49.0355,376.773
200.0,1210.0,200.6528,348.011,367.436,861.989,1229.42,861.989,56.6925,310.743
199.9,1153.0,200.553,291.011,301.106,861.989,1163.1,861.989,66.4725,234.634
199.8,1108.0,200.453,246.011,241.142,861.989,1103.13,861.989,79.2533,161.888
199.7,1041.0,200.353,179.011,198.364,861.989,1060.35,861.989,96.331,102.033
199.6,1056.0,200.253,194.011,178.388,861.989,1040.38,861.989,119.562,58.8257
199.5,1039.0,200.1528,177.011,182.584,861.989,1044.57,861.989,151.461,31.1238
199.4,1079.0,200.053,217.011,210.31,861.989,1072.3,861.989,195.121,15.1895
199.3,1076.0,199.953,214.011,260.654,861.989,1122.64,861.989,253.768,6.88588
199.2,1234.0,199.853,372.011,332.634,861.989,1194.62,861.989,329.71,2.92439
199.1,1296.0,199.753,434.011,423.77,861.989,1285.76,861.989,422.596,1.17427
199.0,1401.0,199.6528,539.011,527.734,861.989,1389.72,861.989,527.284,0.449691
198.9,1482.0,199.553,620.011,632.417,861.989,1494.41,861.989,632.252,0.16534
198.8,1581.0,199.453,719.011,720.071,861.989,1582.06,861.989,720.013,0.0585872
198.7,1634.0,199.353,772.011,770.755,861.989,1632.74,861.989,770.735,0.0200227
198.6,1661.0,199.253,799.011,768.758,861.989,1630.75,861.989,768.751,0.00658971
198.5,1518.0,199.1528,656.011,709.39,861.989,1571.38,861.989,709.388,0.00208272
198.4,1474.0,199.053,612.011,602.267,861.989,1464.26,861.989,602.266,0.000630193
198.3,1335.0,198.953,473.011,468.562,861.989,1330.55,861.989,468.562,0.000182037
198.2,1187.0,198.853,325.011,333.241,861.989,1195.23,861.989,333.241,5.00789e-05
198.1,1071.0,198.753,209.011,216.465,861.989,1078.45,861.989,216.465,1.30957e-05
198.0,1003.0,198.6528,141.011,128.531,861.989,990.52,861.989,128.531,3.25033e-06
197.9,970.0,198.553,108.011,69.9422,861.989,931.931,861.989,69.9422,7.6476e-07
197.8,906.0,198.453,44.0109,35.0375,861.989,897.027,861.989,35.0375,1.70412e-07
197.7,911.0,198.353,49.0109,16.2618,861.989,878.251,861.989,16.2618,3.59342e-08
197.6,902.0,198.253,40.0109,7.04945,861.989,869.039,861.989,7.04945,7.16568e-09
197.5,840.0,198.1528,-21.9891,2.8804,861.989,864.87,861.989,2.8804,1.35052e-09
197.4,862.0,198.053,0.0108962,1.11938,861.989,863.108,861.989,1.11938,2.40454e-10
197.3,821.0,197.953,-40.9891,0.416864,861.989,862.406,861.989,0.416864,4.04263e-11
197.2,805.0,197.853,-56.9891,0.149486,861.989,862.139,861.989,0.149486,6.41575e-12
197.1,858.0,197.753,-3.9891,0.051707,861.989,862.041,861.989,0.051707,9.60995e-13
197.0,872.0,197.6528,10.0109,0.0172368,861.989,862.006,861.989,0.0172368,1.35593e-13
196.9,839.0,197.553,-22.9891,0.0055238,861.989,861.995,861.989,0.0055238,1.81679e-14
196.8,864.0,197.453,2.0109,0.00169652,861.989,861.991,861.989,0.00169652,2.22076e-15
196.7,875.0,197.353,13.0109,0.000497881,861.989,861.99,861.989,0.000497881,3.47593e-16
196.6,866.0,197.253,4.0109,0.000139261,861.989,861.989,861.989,0.000139261,0.0
196.5,901.0,197.1528,39.0109,3.70489e-05,861.989,861.989,861.989,3.70489e-05,0.0
196.4,868.0,197.053,6.0109,9.35944e-06,861.989,861.989,861.989,9.35944e-06,0.0
196.3,846.0,196.953,-15.9891,2.24227e-06,861.989,861.989,861.989,2.24227e-06,0.0
196.2,861.0,196.853,-0.989104,5.08907e-07,861.989,861.989,861.989,5.08907e-07,0.0
196.1,868.0,196.753,6.0109,1.09327e-07,861.989,861.989,861.989,1.09327e-07,0.0
196.0,875.0,196.6528,13.0109,2.22154e-08,861.989,861.989,861.989,2.22154e-08,0.0
195.9,809.0,196.553,-52.9891,4.26735e-09,861.989,861.989,861.989,4.2673e-09,0.0
195.8,795.0,196.453,-66.9891,7.74435e-10,861.989,861.989,861.989,7.74472e-10,0.0
195.7,794.0,196.353,-67.9891,1.32786e-10,861.989,861.989,861.989,1.32746e-10,0.0
195.6,797.0,196.253,-64.9891,2.14868e-11,861.989,861.989,861.989,2.14799e-11,0.0
195.5,865.0,196.1528,3.0109,3.29692e-12,861.989,861.989,861.989,3.27986e-12,0.0
195.4,915.0,196.053,53.0109,4.54747e-13,861.989,861.989,861.989,4.72627e-13,0.0
195.3,877.0,195.953,15.0109,1.13687e-13,861.989,861.989,861.989,6.44238e-14,0.0
195.2,818.0,195.853,-43.9891,0.0,861.989,861.989,861.989,8.13421e-15,0.0
195.1,844.0,195.753,-17.9891,0.0,861.989,861.989,861.989,1.27228e-15,0.0
195.0,874.0,195.6528,12.0109,0.0,861.989,861.989,861.989,0.0,0.0