File: XPS/LG4X-result/MX-UT-0.5-3-Ti2p.csv
#No of rows lightened (2D detector)1(if not using 2D detector, value is 1 and can be ignored!)
raw_x,raw_y,corrected x,data-bg,sum_components,bg,sum_fit,bg_poly_,C_1,C_2,C_3,C_4,C_5,C_6,C_7,C_8
470.0,425.0,470.6528,226.973,151.94,198.027,349.967,198.027,18.4912,37.6068,44.8741,3.52374,0.00278457,4.59607e-18,33.1223,14.3195
469.7,590.0,470.353,394.738,157.033,195.262,352.296,195.262,19.2089,39.1432,46.7848,3.7606,0.00300042,1.33688e-16,33.7851,14.3477
469.4,541.0,470.0528,348.497,162.394,192.503,354.897,192.503,19.9693,40.7756,48.8201,4.02242,0.00324349,3.43858e-15,34.4291,14.3746
469.1,552.0,469.753,362.251,168.047,189.749,357.796,189.749,20.7757,42.5123,50.991,4.31286,0.00351969,7.82064e-14,35.0513,14.4004
468.8,501.0,469.453,314,174.017,187,361.017,187,21.6319,44.3622,53.3099,4.63626,0.00383989,1.57282e-12,35.6484,14.4249
468.5,438.0,469.1528,253.744,180.335,184.256,364.592,184.256,22.5421,46.3354,55.7904,4.99783,0.00423186,2.79696e-11,36.2172,14.4482
468.2,498.0,468.853,316.482,187.035,181.518,368.553,181.518,23.511,48.4432,58.4479,5.40386,0.00478467,4.39795e-10,36.7545,14.4703
467.9,384.0,468.5528,205.216,194.157,178.784,372.941,178.784,24.5436,50.698,61.2997,5.862,0.00580367,6.11444e-09,37.257,14.4911
467.6,383.0,468.253,206.944,201.747,176.056,377.803,176.056,25.6458,53.1138,64.3651,6.38162,0.00831713,7.51592e-08,37.7213,14.5107
467.3,179.0,467.953,5.66717,209.859,173.333,383.192,173.333,26.8238,55.7063,67.6661,6.97431,0.0156186,8.16749e-07,38.1443,14.529
467.0,236.0,467.6528,65.3852,218.566,170.615,389.181,170.615,28.0848,58.4932,71.2272,7.65453,0.0376278,7.84554e-06,38.5228,14.5461
466.7,147.0,467.353,-20.9019,227.966,167.902,395.868,167.902,29.4368,61.4943,75.0766,8.44057,0.102305,6.66053e-05,38.8537,14.5619
466.4,118.0,467.0528,-47.1942,238.217,165.194,403.411,165.194,30.8887,64.7322,79.2463,9.35575,0.283218,0.00049962,39.1341,14.5764
466.1,157.0,466.753,-5.49151,249.601,162.492,412.092,162.492,32.4507,68.2324,83.7725,10.4303,0.760698,0.00331037,39.3614,14.5896
465.8,171.0,466.453,11.206,262.658,159.794,422.452,159.794,34.134,72.024,88.6971,11.7038,1.94564,0.0193659,39.5328,14.6016
465.5,222.0,466.1528,64.8985,278.454,157.102,435.556,157.102,35.9517,76.1403,94.0683,13.2293,4.70612,0.0999753,39.6462,14.6123
465.2,96.1832,465.853,-58.231,299.071,154.414,453.485,154.414,37.9184,80.6192,99.9415,15.0788,10.7369,0.455162,39.6995,14.6216
464.9,100.068,465.5528,-51.664,328.517,151.732,480.249,151.732,40.0507,85.5046,106.381,17.3526,23.081,1.82612,39.6908,14.6297
464.6,410.704,465.253,261.649,374.308,149.055,523.363,149.055,42.3679,90.8471,113.462,20.1936,46.7315,6.45069,39.6189,14.6365
464.3,227.762,464.953,81.3795,449.947,146.383,596.329,146.383,44.8919,96.7055,121.273,23.812,89.0961,20.0438,39.4824,14.642
464.0,709.502,464.6528,565.787,577.837,143.716,721.553,143.716,47.6479,103.148,129.916,28.528,159.943,54.7261,39.2808,14.6462
463.7,1025.64,464.353,884.582,790.443,141.054,931.497,141.054,50.6654,110.255,139.515,34.852,270.341,131.151,39.0136,14.6491
463.4,1373.28,464.0528,1234.88,1125.07,138.397,1263.47,138.397,53.9783,118.12,150.215,43.6477,430.218,275.561,38.6809,14.6507
463.1,1506.07,463.753,1370.32,1607.73,135.745,1743.47,135.745,57.6266,126.855,162.189,56.5007,644.599,507.023,38.2832,14.651
462.8,2333.59,463.453,2200.49,2228.43,133.098,2361.53,133.098,61.6569,136.592,175.65,76.7141,909.313,816.031,37.8212,14.65
462.5,2947.45,463.1528,2816.99,2924.16,130.457,3054.61,130.457,66.1244,147.487,190.851,112.513,1207.69,1147.54,37.2963,14.6477
462.2,3508.06,462.853,3380.24,3596.52,127.82,3724.34,127.82,71.0945,159.729,208.104,187.609,1510.15,1408.48,36.7102,14.6441
461.9,4300.89,462.553,4175.7,4181.14,125.188,4306.32,125.188,76.6453,173.545,227.795,367.231,1777.88,1507.33,36.0648,14.6391
461.6,4843,462.253,4720.44,4729.21,122.562,4851.77,122.562,82.8708,189.21,250.403,780.921,1970.62,1405.19,35.3628,14.6329
461.3,5441.79,461.953,5321.85,5356.43,119.94,5476.37,119.94,89.8846,207.058,276.528,1537.15,2056.47,1140.1,34.6069,14.6254
461.0,6109.28,461.6528,5991.96,5964.9,117.324,6082.23,117.324,97.8252,227.498,306.935,2459.31,2020.51,804.416,33.8003,14.6166
460.7,6032.9,461.353,5918.19,6099.69,114.712,6214.4,114.712,106.863,251.033,342.605,2989.4,1869.03,493.206,32.9466,14.6065
460.4,5739.74,461.053,5627.63,5416.84,112.106,5528.94,112.106,117.208,278.286,384.812,2699.53,1627.76,262.599,32.0495,14.595
460.1,4216.71,460.753,4107.21,4207.58,109.504,4317.09,109.504,129.126,310.036,435.24,1831.45,1334.7,121.341,31.1131,14.5823
459.8,3129.59,460.453,3022.68,3092.27,106.907,3199.17,106.907,142.949,347.265,496.136,982.198,1030.38,48.6336,30.1417,14.5684
459.5,2460.03,460.1528,2355.71,2394.89,104.316,2499.2,104.316,159.105,391.223,570.56,464.502,748.907,16.899,29.1397,14.5531
459.2,2173.42,459.853,2071.69,2072.04,101.729,2173.77,101.729,178.146,443.528,662.751,227.396,512.485,5.08849,28.1117,14.5366
458.9,2099.64,459.553,2000.49,1988.22,99.1477,2087.37,99.1477,200.799,506.304,778.683,129.339,330.186,1.32723,27.0624,14.5187
458.6,2112.86,459.253,2016.29,2063.52,96.5711,2160.09,96.5711,228.03,582.401,926.952,85.0526,200.292,0.299762,25.9965,14.4997
458.3,2301.48,458.953,2207.49,2272.13,93.9994,2366.13,93.9994,261.151,675.725,1120.11,61.2894,114.394,0.0586057,24.9187,14.4793
458.0,2794.32,458.6528,2702.89,2616.85,91.4327,2708.28,91.4327,301.971,791.776,1376.62,46.6622,61.5163,0.0099154,23.8338,14.4577
457.7,2899.37,458.353,2810.49,3120.02,88.8709,3208.89,88.8709,353.047,938.539,1723.25,36.8574,31.1497,0.00145135,22.7463,14.4349
457.4,3551.25,458.053,3464.93,3823.35,86.3141,3909.67,86.3141,418.072,1127.99,2196.45,29.9106,14.8543,0.00018375,21.6608,14.4108
457.1,4892,457.753,4808.24,4785.38,83.7623,4869.15,83.7623,502.531,1378.76,2837.66,24.7883,6.67296,2.01179e-05,20.5815,14.3855
456.8,6139.29,457.453,6058.07,6061.75,81.2153,6142.96,81.2153,614.832,1720.93,3668.39,20.8937,2.82592,1.90438e-06,19.5126,14.359
456.5,7626.39,457.1528,7547.71,7647.3,78.6733,7725.97,78.6733,768.321,2204.85,4622.35,17.8588,1.13018,1.55835e-07,18.458,14.3312
456.2,9414.75,456.853,9338.61,9391.14,76.1363,9467.28,76.1363,985.065,2916.44,5442.04,15.4454,0.428832,1.10218e-08,17.4214,14.3023
455.9,11077.2,456.553,11003.6,11020.9,73.6041,11094.5,73.6041,1303.23,3996.99,5676.34,13.4932,0.156296,6.73675e-10,16.4061,14.2721
455.6,12820.4,456.253,12749.3,12441.2,71.0768,12512.3,71.0768,1791.99,5620.8,4986.83,11.8909,0.0565509,3.55799e-11,15.4152,14.2408
455.3,13948.6,455.953,13880,13872.3,68.5545,13940.9,68.5545,2582.02,7680.79,3570.26,10.559,0.0219654,1.62355e-12,14.4515,14.2082
455.0,14903.8,455.6528,14837.8,14919.3,66.0371,14985.4,66.0371,3919.94,8894.01,2068.25,9.4397,0.0104237,6.40008e-14,13.5175,14.1745
454.7,14843,455.353,14779.5,14755.1,63.5245,14818.6,63.5245,6173.36,7560.17,986.3,8.48973,0.00655563,2.17933e-15,12.6152,14.1396
454.4,13617.5,455.053,13556.5,13807,61.0169,13868,61.0169,8511.01,4863.14,399.348,7.67646,0.0051177,6.40971e-17,11.7465,14.1036
454.1,8263.44,454.753,8204.93,8081.03,58.5141,8139.54,58.5141,5130.4,2777.18,141.494,6.97477,0.00443199,1.62816e-18,10.9129,14.0665
453.8,2343.84,454.453,2287.82,2234.63,56.0162,2290.64,56.0162,586.511,1572.87,44.7343,6.36508,0.00399088,3.57163e-20,10.1155,14.0282
453.5,878.861,454.1528,825.338,967.048,53.5232,1020.57,53.5232,10.1194,915.03,12.7187,5.83193,0.00364616,6.76576e-22,9.35519,13.9888
453.2,623.295,453.853,572.26,579.371,51.035,630.406,51.035,0.027134,548.144,3.25291,5.36299,0.00335355,1.10668e-23,8.63244,13.9483
452.9,597.839,453.553,549.288,363.634,48.5517,412.186,48.5517,1.12849e-05,336.082,0.746175,4.94834,0.00309763,1.56297e-25,7.94756,13.9067
452.6,334.363,453.253,288.289,235.346,46.0733,281.419,46.0733,7.1068e-10,209.446,0.152927,4.57988,0.00287107,1.90585e-27,7.30053,13.864
452.3,92.2082,452.953,48.6085,156.666,43.5997,200.266,43.5997,0.0,131.873,0.0278997,4.251,0.00266914,2.00635e-29,6.69111,13.8203
452.0,127.851,452.6528,86.7197,107.338,41.1309,148.469,41.1309,0.0,83.4806,0.00451625,3.95621,0.00248827,1.82343e-31,6.11881,13.7755
451.7,237.811,452.353,199.144,75.9327,38.667,114.6,38.667,0.0,52.9262,0.00064688,3.69095,0.00232553,1.43059e-33,5.58296,13.7296
451.4,67.5985,452.053,31.3906,55.7208,36.208,91.9287,36.208,0.0,33.5016,8.17962e-05,3.45141,0.00217855,9.68881e-36,5.08269,13.6828
451.1,178.085,451.753,144.332,42.608,33.7537,76.3617,33.7537,0.0,21.1197,9.11313e-06,3.23436,0.00204531,5.66415e-38,4.61699,13.6349
450.8,67.9201,451.453,36.6158,34.0425,31.3043,65.3468,31.3043,0.0,13.2329,8.9314e-07,3.03706,0.00192412,2.85822e-40,4.18469,13.586
450.5,206.475,451.1528,177.616,28.4066,28.8597,57.2663,28.8597,0.0,8.22695,7.68944e-08,2.8572,0.00181355,1.24491e-42,3.78453,13.5361
450.2,0.0,450.853,-26.4199,24.663,26.4199,51.0828,26.4199,0.0,5.06802,5.80879e-09,2.69278,0.00171238,4.68006e-45,3.41515,13.4853
450.0,4.0,450.6528,-20.796,22.8771,24.796,47.6731,24.796,0.0,3.6484,9.64837e-10,2.59088,0.00164962,1.04264e-46,3.1853,13.4509