File: XPS/LG4X-result/MX-UT-0.1-C1s.csv
#No of rows lightened (2D detector)1(if not using 2D detector, value is 1 and can be ignored!)
raw_x,raw_y,corrected x,data-bg,sum_components,bg,sum_fit,C=C,pi-pi*,pi-pi*2,C-C,C-O,C=O,O-C=O,TiC
295.0,46.0,295.4255,46.0,48.2141,0.0,48.2141,16.9615,0.0339524,19.4953,8.96982,6.85683e-169,1.26411,1.44719,0.0422906
294.7,8.0,295.126,8.0,53.603,0.0,53.603,17.9311,0.120593,23.0073,9.53265,2.07454e-157,1.37079,1.59629,0.0442493
294.4,0.0,294.826,0.0,58.3956,0.0,58.3956,18.9863,0.389052,25.5621,10.1506,2.49438e-146,1.49169,1.76951,0.0463473
294.1,50.6587,294.525,50.6587,62.3515,0.0,62.3515,20.1375,1.14006,26.5923,10.8312,1.19191e-135,1.6295,1.97232,0.0485982
293.8,17.9916,294.225,17.9916,65.9161,0.0,65.9161,21.3967,3.03448,25.8513,11.5834,2.26343e-125,1.78754,2.21178,0.0510171
293.5,46.2876,293.9255,46.2876,70.5699,0.0,70.5699,22.7777,7.33627,23.5175,12.4176,1.70817e-115,1.97004,2.4972,0.0536213
293.2,105.013,293.626,105.013,78.9516,0.0,78.9516,24.297,16.1102,20.1183,13.3462,5.12315e-106,2.18239,2.84101,0.0564301
292.9,111.85,293.326,111.85,94.5634,0.0,94.5634,25.9734,32.1337,16.3207,14.3845,6.10639e-97,2.43157,3.26004,0.0594656
292.6,139.732,293.025,139.732,120.871,0.0,120.871,27.8296,58.2179,12.7055,15.5504,2.8925e-88,2.72679,3.7776,0.0627529
292.3,141.232,292.725,141.232,159.769,0.0,159.769,29.8922,95.8046,9.63294,16.8663,5.44506e-80,3.08035,4.42656,0.0663206
292.0,194.892,292.4255,194.892,209.817,0.0,209.817,32.1928,143.203,7.22815,18.3593,4.07356e-72,3.50908,5.25436,0.0702015
291.7,244.197,292.126,244.197,265.148,0.0,265.148,34.7697,194.424,5.44872,20.0634,1.21112e-64,4.03642,6.33127,0.0744333
291.4,290.899,291.826,290.899,316.167,0.0,316.167,37.6689,239.764,4.1731,22.0212,1.43101e-57,4.69591,7.76431,0.0790598
291.1,342.853,291.525,342.853,352.41,0.0,352.41,40.9465,268.568,3.26736,24.2867,6.7195e-51,5.53667,9.72148,0.0841317
290.8,357.301,291.225,357.301,366.665,0.0,366.665,44.6714,273.248,2.61904,26.9297,1.25393e-44,6.63225,12.4748,0.0897079
290.5,344.902,290.9255,344.902,358.303,0.0,358.303,48.9287,252.52,2.14586,30.0415,9.29935e-39,8.09402,16.4772,0.0958576
290.2,331.068,290.626,331.068,334.012,0.0,334.012,53.825,211.968,1.79197,33.743,2.74077e-33,10.0896,22.4919,0.102662
289.9,292.313,290.326,292.313,305.556,0.0,305.556,59.495,161.614,1.52066,38.1981,3.21021e-28,12.8621,31.7567,0.110219
289.6,337.404,290.025,337.404,285.705,0.0,285.705,66.1108,111.923,1.3079,43.632,1.49429e-23,16.737,45.8753,0.118641
289.3,293.246,289.725,293.246,283.008,0.0,283.008,73.8951,70.4042,1.13776,50.3591,2.76427e-19,22.0895,64.9945,0.128068
289.0,298.028,289.4255,298.028,294.807,0.0,294.807,83.1402,40.2264,0.999381,58.8229,2.0322e-15,29.2368,82.2422,0.138666
288.7,278.668,289.126,278.668,307.72,0.0,307.72,94.236,20.8765,0.885208,69.65,5.93734e-12,38.2374,83.6842,0.150636
288.4,300.35,288.826,300.35,318.704,0.0,318.704,107.712,9.84103,0.789824,83.7141,6.89383e-09,48.6419,67.8409,0.164228
288.1,366.423,288.525,366.423,339.249,0.0,339.249,124.301,4.21364,0.709267,102.197,3.18105e-06,59.3243,48.3237,0.179746
287.8,400.841,288.225,400.841,376.124,0.0,376.124,145.042,1.63874,0.64058,126.611,0.000583339,68.5704,33.4222,0.197575
287.5,437.611,287.9255,437.611,429.674,0.0,429.674,171.448,0.578889,0.581515,158.725,0.0425122,74.5118,23.5688,0.218197
287.2,504.172,287.626,504.172,501.252,0.0,501.252,205.785,0.185745,0.530338,200.312,1.23125,75.7827,17.1824,0.242228
286.9,581.579,287.326,581.579,604.268,0.0,604.268,251.586,0.0541344,0.485691,252.673,14.1717,72.0752,12.9511,0.270463
286.6,787,287.025,787,770.426,0.0,770.426,314.592,0.0143306,0.446499,315.919,64.8245,64.2721,10.0543,0.303947
286.3,966.6,286.725,966.6,973.5,0.0,973.5,404.64,0.0034458,0.411903,388.181,117.841,54.0738,8.00422,0.344066
286.0,1168.58,286.4255,1168.58,1140.49,0.0,1140.49,539.702,0.000752576,0.381205,465.024,85.1327,43.346,6.50912,0.3927
285.7,1312.73,286.126,1312.73,1358.72,0.0,1358.72,755.091,0.000149295,0.353837,539.448,24.442,33.5429,5.38945,0.452448
285.4,1688.16,285.826,1688.16,1762.77,0.0,1762.77,1126.4,2.69014e-05,0.329332,602.749,2.78881,25.4452,4.53137,0.526979
285.1,2486.77,285.525,2486.77,2506.81,0.0,2506.81,1836.46,4.40292e-06,0.307301,646.217,0.126457,19.2197,3.86044,0.621621
284.8,4018.56,285.225,4018.56,4123.93,0.0,4123.93,3441.67,6.54546e-07,0.287421,663.244,0.00227881,14.6489,3.32657,0.744346
284.5,9060.43,284.9255,9060.43,8952.36,0.0,8952.36,8285.82,8.83842e-08,0.269419,651.109,1.63198e-05,11.3675,2.89521,0.90752
284.2,19721.3,284.626,19721.3,19728,0.0,19728,19103.3,1.08404e-08,0.253064,611.758,4.64475e-08,9.01714,2.54192,1.1312
283.9,12690.7,284.326,12690.7,12714.5,0.0,12714.5,12152,1.20767e-09,0.238161,551.245,5.25353e-11,7.31232,2.24908,1.44968
283.6,2601.02,284.025,2601.02,2611.53,0.0,2611.53,2123.25,1.22204e-10,0.224543,478.072,2.36147e-14,6.04964,2.00375,1.92583
283.3,872.699,283.725,872.699,740.615,0.0,740.615,329.746,1.12321e-11,0.212064,401.084,4.21846e-18,5.09198,1.79624,2.68558
283.0,408.411,283.4255,408.411,393.64,0.0,393.64,55.8018,9.3771e-13,0.200601,327.655,2.9948e-22,4.34878,1.6192,4.01486
282.7,294.547,283.126,294.547,283.564,0.0,283.564,8.76929,7.11069e-14,0.190047,262.679,8.44932e-27,3.76001,1.46697,6.69811
282.4,189.767,282.826,189.767,228.227,0.0,228.227,1.17938,4.89767e-15,0.180306,208.431,9.47367e-32,3.28518,1.33515,13.8158
282.1,241.853,282.525,241.853,223.182,0.0,223.182,0.130203,3.0641e-16,0.171298,165.081,4.22139e-37,2.89629,1.22026,53.6832
281.8,481.899,282.225,481.899,472.849,0.0,472.849,0.0115166,1.74121e-17,0.162951,131.477,7.4754e-43,2.57353,1.11953,337.504
281.5,606.588,281.9255,606.588,609.98,0.0,609.98,0.000803584,8.98736e-19,0.155201,105.883,5.26084e-49,2.30252,1.03073,500.608
281.2,198.414,281.626,198.414,208.5,0.0,208.5,4.37698e-05,4.21356e-20,0.147992,86.5069,1.47135e-55,2.07265,0.952062,118.821
280.9,88.5854,281.326,88.5854,95.748,0.0,95.748,1.84714e-06,1.79433e-21,0.141276,71.7842,1.63538e-62,1.87591,0.88204,21.0646
280.6,37.2027,281.025,37.2027,71.7665,0.0,71.7665,6.00633e-08,6.94046e-23,0.135008,60.4763,7.22378e-70,1.70617,0.819448,8.62959
280.3,30.5755,280.725,30.5755,58.9579,0.0,58.9579,1.49859e-09,2.43843e-24,0.129149,51.6608,1.26809e-77,1.55866,0.763272,4.84602
280.0,22.8581,280.4255,22.8581,50.0629,0.0,50.0629,2.85963e-11,7.78155e-26,0.123664,44.674,8.84663e-86,1.42963,0.712667,3.12291
279.7,37.1686,280.126,37.1686,43.332,0.0,43.332,4.16891e-13,2.25557e-27,0.118521,39.0455,2.45271e-94,1.3161,0.666922,2.18502
279.4,37.4726,279.826,37.4726,38.0129,0.0,38.0129,5.21182e-15,5.93858e-29,0.113694,34.4419,2.70244e-103,1.21567,0.625435,1.61617
279.1,32.7176,279.525,32.7176,33.693,0.0,33.693,0.0,1.42018e-30,0.109157,30.6252,1.18334e-112,1.12637,0.587694,1.24456
278.8,8.0,279.225,8.0,30.1158,0.0,30.1158,0.0,3.08489e-32,0.104886,27.4228,2.05921e-122,1.04663,0.553263,0.988231
278.5,18.0,278.9255,18.0,27.1088,0.0,27.1088,0.0,6.08652e-34,0.100861,24.7072,1.42408e-132,0.975101,0.521766,0.80386
278.2,19.0,278.626,19.0,24.5503,0.0,24.5503,0.0,1.09077e-35,0.0970645,22.3829,3.91391e-143,0.910701,0.492879,0.666773
277.9,10.0,278.326,10.0,22.3514,0.0,22.3514,0.0,1.77556e-37,0.0934784,20.377,4.27493e-154,0.852507,0.466323,0.562049
277.6,9.0,278.025,9.0,20.445,0.0,20.445,0.0,2.62524e-39,0.0900878,18.6331,1.85561e-165,0.799741,0.441853,0.480233
277.3,5.0,277.725,5.0,18.7797,0.0,18.7797,0.0,3.52564e-41,0.0868787,17.1068,3.20101e-177,0.751748,0.419258,0.415089