File: XPS/LG4X-result/MX-UT-0.1-F1s.csv
#No of rows lightened (2D detector)1(if not using 2D detector, value is 1 and can be ignored!)
raw_x,raw_y,corrected x,data-bg,sum_components,bg,sum_fit,Ti-F,TiF2
690.5,7255.0,690.9195,20.0,-7186.05,7235.0,48.9487,42.6813,6.26749
690.4,7257.0,690.8195,22.0,-7184.45,7235.0,50.5473,44.0939,6.45345
690.3,7332.0,690.719,97.0,-7182.77,7235.0,52.2254,45.5776,6.64779
690.2,7351.0,690.6195,116.0,-7181.01,7235.0,53.9884,47.1373,6.85103
690.1,7391.0,690.5195,156.0,-7179.16,7235.0,55.842,48.7783,7.06371
690.0,7378.0,690.4195,143.0,-7177.21,7235.0,57.7925,50.5061,7.28642
689.9,7275.0,690.3195,40.0,-7175.15,7235.0,59.8469,52.3271,7.51981
689.8,7315.0,690.219,80.0,-7172.99,7235.0,62.0126,54.2481,7.76457
689.7,7300.0,690.1195,65.0,-7170.7,7235.0,64.2978,56.2764,8.02144
689.6,7322.0,690.0195,87.0,-7168.29,7235.0,66.7115,58.4202,8.29123
689.5,7286.0,689.9195,51.0,-7165.74,7235.0,69.2633,60.6885,8.57483
689.4,7313.0,689.8195,78.0,-7163.04,7235.0,71.9642,63.091,8.87318
689.3,7305.0,689.719,70.0,-7160.17,7235.0,74.8257,65.6384,9.18734
689.2,7385.0,689.6195,150.0,-7157.14,7235.0,77.861,68.3426,9.51842
689.1,7451.0,689.5195,216.0,-7153.92,7235.0,81.0843,71.2167,9.86767
689.0,7404.0,689.4195,169.0,-7150.49,7235.0,84.5115,74.2751,10.2364
688.9,7364.0,689.3195,129.0,-7146.84,7235.0,88.16,77.5339,10.6262
688.8,7537.0,689.219,302.0,-7142.95,7235.0,92.0494,81.0108,11.0385
688.7,7499.0,689.1195,264.0,-7138.8,7235.0,96.201,84.7257,11.4753
688.6,7304.0,689.0195,69.0,-7134.36,7235.0,100.639,88.7008,11.9383
688.5,7235.0,688.9195,0.0,-7129.61,7235.0,105.39,92.9605,12.4299
688.4,7464.0,688.8195,229.103,-7124.41,7234.9,110.485,97.5328,12.9523
688.3,7378.0,688.719,143.269,-7118.77,7234.73,115.957,102.449,13.5082
688.2,7473.0,688.6195,238.44,-7112.72,7234.56,121.844,107.743,14.1005
688.1,7382.0,688.5195,147.613,-7106.2,7234.39,128.188,113.456,14.7324
688.0,7364.0,688.4195,129.738,-7099.22,7234.26,135.04,119.632,15.4076
687.9,7439.0,688.3195,204.888,-7091.66,7234.11,142.452,126.322,16.1299
687.8,7324.0,688.219,90.0197,-7083.49,7233.98,150.489,133.585,16.904
687.7,7320.0,688.1195,86.0986,-7074.68,7233.9,159.221,141.487,17.7348
687.6,7442.0,688.0195,208.23,-7065.04,7233.77,168.732,150.104,18.628
687.5,7566.0,687.9195,332.473,-7054.41,7233.53,179.114,159.524,19.59
687.4,7372.0,687.8195,138.684,-7042.84,7233.32,190.478,169.85,20.6279
687.3,7601.0,687.719,367.911,-7030.14,7233.09,202.95,181.2,21.7499
687.2,7463.0,687.6195,230.179,-7016.14,7232.82,216.678,193.712,22.9652
687.1,7564.0,687.5195,331.43,-7000.74,7232.57,231.833,207.548,24.2844
687.0,7430.0,687.4195,197.667,-6983.71,7232.33,248.618,222.898,25.7195
686.9,7517.0,687.3195,284.883,-6964.84,7232.12,267.273,239.988,27.2845
686.8,7462.0,687.219,230.114,-6943.8,7231.89,288.082,259.086,28.9953
686.7,7583.0,687.1195,351.375,-6920.24,7231.63,311.383,280.513,30.8703
686.6,7574.0,687.0195,342.686,-6893.73,7231.31,337.585,304.654,32.931
686.5,7590.0,686.9195,359,-6863.82,7231,367.179,331.976,35.2025
686.4,7744.0,686.8195,513.391,-6829.85,7230.61,400.761,363.047,37.714
686.3,7638.0,686.719,407.803,-6791.13,7230.2,439.064,398.564,40.5
686.2,7714.0,686.6195,484.203,-6746.81,7229.8,482.987,439.385,43.6014
686.1,7765.0,686.5195,535.66,-6695.7,7229.34,533.642,486.575,47.0667
686.0,7815.0,686.4195,586.163,-6636.42,7228.84,592.418,541.464,50.954
685.9,7834.0,686.3195,605.696,-6567.25,7228.3,661.049,605.716,55.3329
685.8,7900.0,686.219,672.269,-6486.02,7227.73,741.706,681.418,60.2879
685.7,7951.0,686.1195,723.894,-6390.01,7227.11,837.101,771.179,65.9217
685.6,8083.0,686.0195,856.603,-6275.82,7226.4,950.573,878.213,72.3601
685.5,8288.0,685.9195,1062.46,-6139.39,7225.54,1086.15,1006.39,79.7582
685.4,8354.0,685.8195,1129.44,-5976.12,7224.56,1248.43,1160.12,88.3083
685.3,8602.0,685.719,1378.57,-5781.17,7223.43,1442.27,1344.02,98.2502
685.2,9004.0,685.6195,1781.98,-5550.23,7222.02,1671.78,1561.9,109.884
685.1,9261.0,685.5195,2040.7,-5281.76,7220.3,1938.54,1814.96,123.587
685.0,9565.0,685.4195,2346.66,-4980.1,7218.34,2238.24,2098.41,139.827
684.9,9897.0,685.3195,2680.91,-4660.29,7216.09,2555.8,2396.62,159.185
684.8,10249.0,685.219,3035.47,-4353.8,7213.53,2859.73,2677.37,182.355
684.7,10300.0,685.1195,3089.22,-4111.45,7210.78,3099.33,2889.19,210.135
684.6,10300.0,685.0195,3091.99,-3996.51,7208.01,3211.5,2968.15,243.349
684.5,10224.0,684.9195,3018.73,-4062.68,7205.27,3142.59,2859.9,282.688
684.4,10065.0,684.8195,2862.36,-4323.11,7202.64,2879.53,2551.16,328.366
684.3,9696.0,684.719,2495.76,-4731.99,7200.24,2468.25,2088.72,379.53
684.2,9198.0,684.6195,1999.77,-5199.89,7198.23,1998.33,1564.96,433.377
684.1,8769.0,684.5195,1572.37,-5636.53,7196.63,1560.09,1075.95,484.146
684.0,8436.0,684.4195,1240.63,-5989.27,7195.37,1206.09,683.486,522.609
683.9,8132.0,684.3195,937.611,-6252.45,7194.39,941.941,404.666,537.275
683.8,8002.0,684.219,808.393,-6450.13,7193.61,743.473,225.17,518.304
683.7,7888.0,684.1195,695.067,-6611.27,7192.93,581.667,118.531,463.137
683.6,7568.0,684.0195,375.546,-6753.17,7192.45,439.281,59.29,379.991
683.5,7444.0,683.9195,251.827,-6878.53,7192.17,313.642,28.252,285.39
683.4,7288.0,683.8195,95.983,-6982.47,7192.02,209.543,12.8382,196.705
683.3,7411.0,683.719,219.124,-7061.05,7191.88,130.825,5.56437,125.261
683.2,7407.0,683.6195,215.319,-7115.05,7191.68,76.6309,2.29945,74.3314
683.1,7506.0,683.5195,314.556,-7149.09,7191.44,42.3515,0.905395,41.4462
683.0,7352.0,683.4195,160.769,-7169.03,7191.23,22.1977,0.339407,21.8583
682.9,7363.0,683.3195,171.918,-7180.01,7191.08,11.0733,0.121036,10.9522
682.8,7322.0,683.219,131.054,-7185.68,7190.95,5.26803,0.0410277,5.227
682.7,7263.0,683.1195,72.145,-7188.46,7190.86,2.39197,0.0132093,2.37876
682.6,7319.0,683.0195,128.235,-7189.73,7190.77,1.03651,0.00403663,1.03248
682.5,7258.0,682.9195,67.3223,-7190.25,7190.68,0.428426,0.00117009,0.427256
682.4,7332.0,682.8195,141.416,-7190.42,7190.58,0.16878,0.000321537,0.168459
682.3,7294.0,682.719,103.526,-7190.41,7190.47,0.0633191,8.37195e-05,0.0632354
682.2,7302.0,682.6195,111.622,-7190.36,7190.38,0.0226013,2.06443e-05,0.0225807
682.1,7326.0,682.5195,135.733,-7190.26,7190.27,0.00766924,4.81912e-06,0.00766442
682.0,7377.0,682.4195,186.877,-7190.12,7190.12,0.002472,1.06454e-06,0.00247094
681.9,7277.0,682.3195,87.0,-7190,7190.0,0.000756329,2.22447e-07,0.000756107
681.8,7190.0,682.219,0.0,-7190,7190.0,0.00021951,4.39573e-08,0.000219466
681.7,7219.0,682.1195,29.0,-7190,7190.0,6.03981e-05,8.212e-09,6.03899e-05
681.6,7252.0,682.0195,62.0,-7190,7190.0,1.57466e-05,1.44999e-09,1.57451e-05