File: XPS/LG4X-result/MX-UT-0.1-3-Ti2p.csv
#No of rows lightened (2D detector)1(if not using 2D detector, value is 1 and can be ignored!)
raw_x,raw_y,corrected x,data-bg,sum_components,bg,sum_fit,TiC,Ti 2+,Ti 3+,C_4,C_5,C_6,Ti 4+,C_8
470.0,14476.0,470.4017,520.0,-13871.5,13956.0,84.4889,10.672,31.6184,15.2465,12.4618,7.10076,4.1203,1.21343,2.05573
469.7,14494.0,470.102,538.0,-13867.1,13956.0,88.9399,11.0914,32.9318,15.9231,13.3164,7.64891,4.48927,1.27742,2.26159
469.4,14243.0,469.8017,287.0,-13862.2,13956.0,93.7923,11.5359,34.3288,16.6458,14.262,8.2631,4.91017,1.34661,2.49992
469.1,14446.0,469.5017,490.0,-13856.9,13956.0,99.1021,12.0076,35.8165,17.4189,15.312,8.95439,5.3932,1.42157,2.77789
468.8,14333.0,469.202,377.0,-13851.1,13956.0,104.937,12.509,37.403,18.247,16.4824,9.73623,5.95126,1.50296,3.10478
468.5,14336.0,468.9017,380.0,-13844.6,13956.0,111.377,13.0423,39.0972,19.1355,17.7923,10.6252,6.60073,1.59154,3.49274
468.2,14410.0,468.602,454.0,-13837.5,13956.0,118.525,13.6105,40.909,20.0906,19.2648,11.6417,7.36276,1.68819,3.9579
467.9,14060.0,468.3017,104.0,-13829.5,13956.0,126.506,14.2166,42.8496,21.119,20.9279,12.8116,8.26497,1.79391,4.52208
467.6,14323.0,468.0017,367.0,-13820.5,13956.0,135.476,14.8641,44.9316,22.2283,22.8161,14.1671,9.34404,1.90987,5.21532
467.3,14347.0,467.702,391.0,-13810.4,13956.0,145.642,15.5569,47.1688,23.4273,24.9718,15.75,10.6495,2.03743,6.07989
467.0,14406.0,467.4017,450.0,-13798.7,13956.0,157.269,16.2992,49.5773,24.726,27.4481,17.6139,12.2495,2.1782,7.17667
466.7,14114.0,467.102,158.0,-13785.3,13956.0,170.718,17.0959,52.1748,26.1356,30.3119,19.8296,14.24,2.33407,8.5958
466.4,14230.0,466.8017,274.0,-13769.5,13956.0,186.485,17.9525,54.9817,27.6692,33.6484,22.4918,16.7596,2.50726,10.4749
466.1,14149.0,466.5017,193.0,-13750.7,13956.0,205.281,18.875,58.021,29.3418,37.5677,25.729,20.0146,2.70045,13.0314
465.8,14240.0,466.202,284.0,-13727.8,13956.0,228.156,19.8705,61.3192,31.1706,42.2137,29.7199,24.3227,2.91682,16.6225
465.5,14196.0,465.9017,240.86,-13698.4,13955.1,256.738,20.9467,64.9063,33.1758,47.778,34.7182,30.1945,3.16024,21.858
465.2,14305.0,465.602,354.809,-13656.5,13950.2,293.664,22.1128,68.8173,35.3806,54.5193,41.0943,38.494,3.4354,29.8101
464.9,14191.0,465.3017,246.146,-13601.5,13944.9,343.353,23.379,73.092,37.8126,62.7946,49.4064,50.7777,3.74806,42.343
464.6,14440.0,465.0017,502.77,-13524.1,13937.2,413.119,24.757,77.7771,40.5039,73.1068,60.5268,70.0835,4.10533,62.2585
464.3,14676.0,464.702,750.445,-13411.7,13925.6,513.875,26.2603,82.9266,43.4927,86.1831,75.8814,102.94,4.51612,91.6753
464.0,14528.0,464.4017,616.046,-13251.9,13912,660.096,27.9048,88.604,46.8246,103.106,97.93,164.631,4.99163,126.104
463.7,14872.0,464.102,977.974,-13018.3,13894,875.711,29.7086,94.8837,50.554,125.543,131.207,289.096,5.54617,149.173
463.4,15102.0,463.8017,1231.56,-12671.1,13870.4,1199.32,31.6929,101.854,54.7466,156.171,184.766,519.623,6.19821,144.266
463.1,15513.0,463.5017,1675.15,-12228.2,13837.9,1609.7,33.8826,109.619,59.4825,199.496,278.256,806.738,6.97194,115.255
462.8,15769.0,463.202,1968.62,-11851.4,13800.4,1949.01,36.307,118.305,64.8593,263.554,455.249,921.622,7.89949,81.2141
462.5,16164.0,462.9017,2410.74,-11558.8,13753.3,2194.48,39.0008,128.062,70.998,363.673,791.651,737.219,9.02426,54.8538
462.2,16472.0,462.602,2772.99,-11101.6,13699,2597.45,42.0056,139.073,78.0494,531.022,1310.47,448.764,10.406,37.6514
461.9,16811.0,462.302,3176.52,-10479,13634.5,3155.46,45.3708,151.56,86.2031,829.727,1755.76,247.844,12.1289,26.8592
461.6,17394.0,462.002,3833.68,-9991.57,13560.3,3568.75,49.1565,165.798,95.7009,1367.4,1712.14,144.301,14.3138,19.9397
461.3,17469.0,461.702,3992.3,-9587.79,13476.7,3888.91,53.4357,182.123,106.854,2195.11,1226.47,92.4534,17.1399,15.3228
461.0,17795.0,461.4017,4409.26,-9178.6,13385.7,4207.14,58.2978,200.957,120.068,3002.85,727.872,64.1041,20.8804,12.1162
460.7,17491.0,461.102,4197.78,-9222.45,13293.2,4070.77,63.8533,222.826,135.881,3144.89,420.481,47.0606,25.9671,9.80843
460.4,16619.0,460.802,3406.79,-9920.45,13212.2,3291.76,70.2405,248.396,155.013,2480.59,260.287,36.027,33.1084,8.09648
460.1,15775.0,460.502,2629.36,-10756.6,13145.6,2389,77.6334,278.513,178.444,1600.82,174.81,28.4735,43.5131,6.7934
459.8,14844.0,460.202,1745.14,-11309.9,13098.9,1788.91,86.2541,314.261,207.528,967.512,125.195,23.0742,59.3063,5.77955
459.5,14727.0,459.9017,1664.84,-11555.8,13062.2,1506.39,96.3894,357.043,244.158,606.52,94.0351,19.0801,84.1855,4.97573
459.2,14608.0,459.602,1580.99,-11594.6,13027,1432.37,108.415,408.698,291.026,406.914,73.2165,16.0418,123.733,4.32797
458.9,14611.0,459.302,1617.14,-11498.8,12993.9,1495.01,122.828,471.664,352.018,290.13,58.6239,13.6767,182.275,3.79849
458.6,14876.0,459.002,1920.16,-11302.2,12955.8,1653.62,140.304,549.24,432.856,216.889,48.0005,11.7993,251.172,3.36026
458.3,15077.0,458.702,2163.54,-11044.1,12913.5,1869.39,161.769,645.987,542.181,168.148,40.0262,10.284,297.999,2.99351
458.0,14963.0,458.4017,2093.08,-10750.7,12869.9,2119.21,188.527,768.382,693.397,134.132,33.8877,9.04322,289.155,2.68354
457.7,15450.0,458.102,2630.85,-10382.5,12819.1,2436.62,222.458,925.926,907.646,109.471,29.0614,8.01443,231.62,2.41923
457.4,15809.0,457.802,3050.77,-9852.92,12758.2,2905.32,266.345,1133.06,1216.91,91.0291,25.1982,7.15187,163.429,2.19206
457.1,16689.0,457.502,4005.26,-9071.08,12683.7,3612.66,324.448,1412.61,1657.85,76.8809,22.0575,6.42154,110.396,1.99539
456.8,17319.0,457.202,4728.53,-7993.75,12590.5,4596.72,403.53,1801.9,2222.67,65.7909,19.4699,5.79772,75.7361,1.824
456.5,18142.0,456.9017,5662.28,-6728.25,12479.7,5751.47,514.817,2363.37,2738.1,56.9376,17.3125,5.26064,53.9919,1.67376
456.2,19230.0,456.602,6888.22,-5515.46,12341.8,6826.31,677.927,3198.18,2838.56,49.7578,15.495,4.79492,40.0583,1.54131
455.9,20272.0,456.302,8090.18,-4398.25,12181.8,7783.57,929.303,4433.93,2325.95,43.8549,13.9495,4.38845,30.7677,1.42397
455.6,21115.0,456.002,9115.49,-3048.83,11999.5,8950.68,1341.55,6027.18,1500.72,38.9433,12.6243,4.03159,24.3188,1.31952
455.3,21873.0,455.702,10079.6,-1723.19,11793.4,10070.2,2069.86,7123.76,805.714,34.8128,11.4795,3.71658,19.6801,1.22614
455.0,21996.0,455.4017,10425.1,-1376.96,11570.9,10193.9,3445.83,6295.13,390.327,31.3062,10.4836,3.43711,16.2405,1.14232
454.7,21680.0,455.102,10328.9,-1259.56,11351.1,10091.5,5731.82,4122.3,181.584,28.3039,9.61203,3.18803,13.6234,1.06681
454.4,19868.0,454.802,8725.19,-2577.86,11142.8,8564.95,6120.89,2310.7,83.2463,25.7136,8.8448,2.96509,11.5879,0.998537
454.1,14305.0,454.502,3292.71,-7763.53,11012.3,3248.76,1910.51,1255.25,37.6857,23.4633,8.16593,2.76475,9.97449,0.936609
453.8,11879.0,454.202,907.23,-10077,10971.8,894.729,144.525,692.264,16.7433,21.496,7.56234,2.58406,8.67464,0.880264
453.5,11625.0,453.9017,668.211,-10518.5,10956.8,438.314,3.30845,390.106,7.24857,19.7661,7.0233,2.42053,7.61237,0.828852
453.2,11364.0,453.602,418.482,-10684.4,10945.5,261.098,0.024014,223.471,3.03899,18.2369,6.53992,2.27205,6.73333,0.781812
452.9,11296.0,453.302,358.826,-10774.9,10937.2,162.309,5.35434e-05,129.224,1.22775,16.8785,6.10479,2.13682,5.99779,0.738664
452.6,11113.0,453.002,181.946,-10826.2,10931.1,104.899,3.54433e-08,74.9567,0.476072,15.6665,5.7117,2.01333,5.37622,0.698989
452.3,11051.0,452.702,123.207,-10856.9,10927.8,70.9093,6.79261e-12,43.3879,0.176623,14.5804,5.35539,1.90024,4.84629,0.662426
452.0,11063.0,452.4017,138.229,-10874.3,10924.8,50.4718,0.0,24.9584,0.0625355,13.6035,5.03142,1.79642,4.39087,0.628656
451.7,10977.0,452.102,55.9471,-10883.1,10921.1,37.994,0.0,14.2204,0.0210866,12.7216,4.73599,1.70088,3.99665,0.597403
451.4,10929.0,451.802,11.7655,-10887,10917.2,30.2333,0.0,8.00362,0.00675992,11.9228,4.46584,1.61277,3.65314,0.568423
451.1,10957.0,451.502,43.0,-10888.7,10914.0,25.2821,0.0,4.44014,0.00205738,11.1969,4.21817,1.53134,3.35202,0.541501
450.8,11033.0,451.202,119.0,-10892,10914.0,22.009,0.0,2.42359,0.000593745,10.5353,3.99054,1.45592,3.08661,0.516446
450.5,11078.0,450.9017,164.0,-10894.3,10914.0,19.7419,0.0,1.29966,0.000162315,9.93068,3.78086,1.38594,2.85148,0.49309
450.2,11095.0,450.602,181.0,-10895.9,10914.0,18.0822,0.0,0.683844,4.1996e-05,9.37665,3.58729,1.32089,2.64219,0.471283
450.0,11032.0,450.4017,118.0,-10896.8,10914.0,17.1926,0.0,0.440792,1.65322e-05,9.03266,3.46638,1.28003,2.5152,0.457538