File: XPS/LG4X-result/MX-UT-0.1-Cl2p.csv
#No of rows lightened (2D detector)1(if not using 2D detector, value is 1 and can be ignored!),,,,,,,,
raw_x,raw_y,corrected x,data-bg,sum_components,bg,sum_fit,bg_shirley_,Ti-Cl,Ti-Cl (2p Â½)
208,39,208.4255,-0.163705,2.15168,39.1637,41.3154,39.1637,0.867233,1.28445
207.8,61,208.2255,21.8363,2.25859,39.1637,41.4223,39.1637,0.905472,1.35311
207.6,21,208.0255,-18.1637,2.37375,39.1637,41.5375,39.1637,0.946302,1.42745
207.4,41,207.8255,1.83629,2.49805,39.1637,41.6618,39.1637,0.989961,1.50809
207.2,50,207.6255,10.8363,2.6325,39.1637,41.7962,39.1637,1.03672,1.59578
207,35,207.4255,-4.16371,2.77824,39.1637,41.9419,39.1637,1.08687,1.69137
206.8,1,207.2255,-38.1637,2.93659,39.1637,42.1003,39.1637,1.14077,1.79583
206.6,30,207.0255,-9.16371,3.10907,39.1637,42.2728,39.1637,1.19878,1.91029
206.4,35,206.8255,-4.16371,3.29743,39.1637,42.4611,39.1637,1.26134,2.0361
206.2,73,206.6255,33.8363,3.50372,39.1637,42.6674,39.1637,1.32893,2.17479
206,7,206.4255,-32.1637,3.73032,39.1637,42.894,39.1637,1.40213,2.32819
205.8,3,206.2255,-36.1637,3.98003,39.1637,43.1437,39.1637,1.48155,2.49847
205.6,7.00076,206.0255,-32.1629,4.25616,39.1637,43.4199,39.1637,1.56794,2.68821
205.4,70.0153,205.8255,30.8516,4.56264,39.1637,43.7263,39.1637,1.66214,2.9005
205.2,13.0427,205.6255,-26.121,4.90419,39.1637,44.0679,39.1637,1.7651,3.13908
205,72.0586,205.4255,32.8949,5.28648,39.1637,44.4502,39.1637,1.87798,3.4085
204.8,56.0873,205.2255,16.9235,5.7164,39.1637,44.8801,39.1637,2.00207,3.71434
204.6,25.1121,205.0255,-14.0516,6.20242,39.1637,45.3661,39.1637,2.13892,4.0635
204.4,89.1331,204.8255,49.9694,6.75498,39.1637,45.9187,39.1637,2.29036,4.46463
204.2,56.1617,204.6255,16.998,7.38718,39.1637,46.5509,39.1637,2.45853,4.92865
204,59.1864,204.4255,20.0227,8.11556,39.1637,47.2793,39.1637,2.64602,5.46954
203.8,38.2075,204.2255,-0.956173,8.96132,39.1637,48.125,39.1637,2.8559,6.10542
203.6,85.2263,204.0255,46.0626,9.95207,39.1637,49.1158,39.1637,3.09192,6.86015
203.4,94.2613,203.8255,55.0976,11.1243,39.1637,50.288,39.1637,3.35862,7.76566
203.2,74.2946,203.6255,35.1309,12.5271,39.1637,51.6908,39.1637,3.66161,8.86552
203,33.3165,203.4255,-5.84723,14.2284,39.1637,53.3921,39.1637,4.00781,10.2205
202.8,30.3331,203.2255,-8.83059,16.3237,39.1637,55.4874,39.1637,4.40593,11.9178
202.6,61.3557,203.0255,22.192,18.9528,39.1637,58.1165,39.1637,4.86699,14.0859
202.4,64.3808,202.8255,25.2171,22.3269,39.1637,61.4906,39.1637,5.4051,16.9218
202.2,60.4147,202.6255,21.251,26.7805,39.1637,65.9442,39.1637,6.03867,20.7418
202,95.4447,202.4255,56.281,32.8742,39.1637,72.0379,39.1637,6.79196,26.0823
201.8,103.481,202.2255,64.3177,41.6109,39.1637,80.7746,39.1637,7.69763,33.9133
201.6,98.525,202.0255,59.3613,54.8866,39.1637,94.0503,39.1637,8.80047,46.0862
201.4,109.576,201.8255,70.4121,76.3015,39.1637,115.465,39.1637,10.1634,66.138
201.2,124.633,201.6255,85.4697,111.951,39.1637,151.115,39.1637,11.8773,100.074
201,206.703,201.4255,167.539,168.897,39.1637,208.061,39.1637,14.078,154.819
200.8,277.811,201.2255,238.648,246.398,39.1637,285.562,39.1637,16.9768,229.421
200.6,366.944,201.0255,327.781,320.292,39.1637,359.456,39.1637,20.9214,299.371
200.4,399.118,200.8255,359.954,343.718,39.1637,382.882,39.1637,26.5275,317.191
200.2,320.279,200.6255,281.115,290.969,39.1637,330.133,39.1637,34.9982,255.971
200,193.395,200.4255,154.231,199.93,39.1637,239.094,39.1637,48.9497,150.98
199.8,180.482,200.2255,141.319,138.36,39.1637,177.524,39.1637,74.3778,63.9823
199.6,225.565,200.0255,186.402,143.532,39.1637,182.696,39.1637,123.91,19.6223
199.4,267.666,199.8255,228.503,221.469,39.1637,260.633,39.1637,216.979,4.49093
199.2,405.816,199.6255,366.652,363.572,39.1637,402.736,39.1637,362.768,0.804081
199,536.018,199.4255,496.855,518.618,39.1637,557.781,39.1637,518.5,0.117884
198.8,585.279,199.2255,546.115,577.421,39.1637,616.584,39.1637,577.406,0.0144962
198.6,521.532,199.0255,482.368,468.871,39.1637,508.034,39.1637,468.869,0.00149406
198.4,281.707,198.8255,242.544,266.631,39.1637,305.795,39.1637,266.631,0.00012742
198.2,175.808,198.6255,136.644,104.556,39.1637,143.719,39.1637,104.556,8.87344e-06
198,43.846,198.4255,4.6823,28.6013,39.1637,67.7649,39.1637,28.6013,4.99531e-07
197.8,49.8739,198.2255,10.7102,5.69848,39.1637,44.8622,39.1637,5.69848,2.25718e-08
197.6,68.8949,198.0255,29.7312,0.889158,39.1637,40.0528,39.1637,0.889158,8.1452e-10
197.4,29.9221,197.8255,-9.2416,0.117101,39.1637,39.2808,39.1637,0.117101,2.33851e-11
197.2,58.937,197.6255,19.7733,0.0134721,39.1637,39.1772,39.1637,0.0134721,5.32402e-13
197,29.9531,197.4255,-9.21062,0.00133706,39.1637,39.165,39.1637,0.00133706,9.72583e-15
196.8,62.9667,197.2255,23.803,0.000111335,39.1637,39.1638,39.1637,0.000111335,0
196.6,15.9793,197.0255,-23.1844,7.61215e-06,39.1637,39.1637,39.1637,7.61215e-06,0
196.4,36.9883,196.8255,-2.17537,4.21689e-07,39.1637,39.1637,39.1637,4.21689e-07,0
196.2,22,196.6255,-17.1637,1.87708e-08,39.1637,39.1637,39.1637,1.87708e-08,0
196,13,196.4255,-26.1637,6.67661e-10,39.1637,39.1637,39.1637,6.6766e-10,0
195.8,49,196.2255,9.83631,1.89004e-11,39.1637,39.1637,39.1637,1.89004e-11,0
195.6,2,196.0255,-37.1637,4.26326e-13,39.1637,39.1637,39.1637,4.24752e-13,0
195.4,26,195.8255,-13.1637,7.10543e-15,39.1637,39.1637,39.1637,7.3466e-15,0
195.2,55,195.6255,15.8363,0,39.1637,39.1637,39.1637,0,0
195,35,195.4255,-4.16369,0,39.1637,39.1637,39.1637,0,0