File: XPS/LG4X-result/MX-UT-0.1-2-C1s.csv
#No of rows lightened (2D detector)1(if not using 2D detector, value is 1 and can be ignored!)
raw_x,raw_y,corrected x,data-bg,sum_components,bg,sum_fit,C=C,pi-pi*,pi-pi*2,C-C,C-O,C_6,TiC
295.0,777.0,295.4017,46.0,-695.482,731.0,35.5178,11.2184,13.0095,0.0,3.63234,7.57824,0.0,0.0793732
294.8,732.0,295.202,1.0,-693.019,731.0,37.9808,11.6418,14.555,0.0,3.77729,7.92493,0.0,0.081799
294.6,810.0,295.002,79.0,-690.18,731.0,40.8197,12.0897,16.4187,0.0,3.93108,8.29587,0.0,0.0843377
294.4,731.0,294.802,0.0,-686.867,731.0,44.1333,12.564,18.6945,0.0,4.09446,8.69334,0.0,0.0869965
294.2,826.0,294.602,95.4273,-682.521,730.573,48.0517,13.0667,21.507,0.0,4.26822,9.11992,0.0,0.089783
294.0,771.0,294.4017,40.8036,-677.452,730.196,52.7447,13.6002,25.02,0.0,4.45328,9.57851,0.0,0.0927056
293.8,748.0,294.202,17.9916,-671.579,730.008,58.4294,14.1671,29.4435,0.0,4.65063,10.0724,0.0,0.0957734
293.6,747.0,294.002,17.187,-664.438,729.813,65.3751,14.7702,35.0393,0.0,4.86138,10.6052,0.0,0.0989959
293.4,789.0,293.802,59.4551,-655.642,729.545,73.9026,15.4127,42.1195,0.0,5.08678,11.1812,0.0,0.102384
293.2,834.0,293.602,105.013,-644.614,728.987,84.3737,16.098,51.0364,0.0,5.3282,11.8051,0.0,0.105949
293.0,809.0,293.4017,80.5451,-631.288,728.455,97.1669,16.8301,62.1576,0.0,5.58722,12.4823,0.0,0.109704
292.8,782.0,293.202,54.1129,-615.252,727.887,112.635,17.6132,75.8238,0.0,5.86556,13.2191,0.0,0.113661
292.6,867.0,293.002,139.732,-596.222,727.268,131.046,18.4524,92.2882,0.0,6.16521,14.0225,0.0,0.117837
292.4,898.0,292.802,171.736,-573.758,726.264,152.506,19.353,111.641,0.0,6.4884,14.9009,0.0,0.122248
292.2,884.0,292.602,158.707,-548.413,725.293,176.88,20.3212,133.73,0.0,6.83764,15.8636,0.0,0.126911
292.0,919.0,292.4017,194.892,-520.387,724.108,203.721,21.364,158.088,0.0,7.21582,16.9218,0.0,0.131845
291.8,991.0,292.202,268.385,-490.387,722.615,232.228,22.4891,183.887,0.0,7.62622,18.0884,0.0,0.137074
291.6,1002.0,292.002,281.03,-459.72,720.97,261.25,23.7056,209.951,0.0,8.0726,19.3785,0.0,0.14262
291.4,1010.0,291.802,290.899,-429.749,719.101,289.352,25.0236,234.811,0.0,8.55928,20.81,0.0,0.148509
291.2,1038.0,291.602,320.802,-402.254,717.198,314.944,26.4546,256.84,0.0,9.09126,22.404,0.0,0.154771
291.0,1073.0,291.4017,357.964,-378.576,715.036,336.46,28.0121,274.427,0.0,9.67432,24.1857,0.0,0.161438
290.8,1070.0,291.202,357.301,-360.136,712.699,352.563,29.7113,286.182,0.0,10.3152,26.1853,0.0,0.168545
290.6,1078.0,291.002,367.773,-347.889,710.227,362.338,31.5701,291.13,0.0,11.0218,28.4393,0.0,0.176132
290.4,1051.0,290.802,342.992,-342.572,708.008,365.436,33.609,288.848,0.0,11.8034,30.9916,0.0,0.184244
290.2,1037.0,290.602,331.068,-343.789,705.932,362.144,35.8521,279.531,0.0,12.671,33.8963,0.0,0.192929
290.0,1056.0,290.4017,352.292,-350.357,703.708,353.351,38.3276,263.964,0.0,13.6377,37.2199,0.0,0.202243
289.8,1025.0,290.202,323.288,-361.265,701.712,340.447,41.0688,243.402,0.0,14.7189,41.0444,0.0,0.212249
289.6,1037.0,290.002,337.404,-374.452,699.596,325.144,44.1152,219.399,0.0,15.9337,45.473,0.0,0.223017
289.4,1001.0,289.802,303.301,-388.411,697.699,309.288,47.5137,193.599,0.0,17.3047,50.6354,0.0,0.234625
289.2,972.0,289.602,276.148,-401.181,695.852,294.671,51.3208,167.546,0.0,18.86,56.6964,0.0,0.247165
289.0,992.0,289.4017,298.028,-411.067,693.972,282.905,55.6046,142.538,0.0,20.6339,63.8678,0.0,0.260738
288.8,945.0,289.202,252.825,-416.824,692.175,275.351,60.448,119.535,0.0,22.6691,72.4237,0.0,0.275461
288.6,975.0,289.002,284.56,-417.322,690.44,273.118,65.9521,99.1333,0.0,25.0194,82.7217,0.0,0.291468
288.4,989.0,288.802,300.35,-411.517,688.65,277.134,72.2422,81.5964,0.0,27.7531,95.2329,0.0,0.308913
288.2,1044.0,288.602,357.277,-398.47,686.723,288.254,79.4732,66.9147,0.0,30.9576,110.58,0.0,0.327973
288.0,1008.0,288.4017,323.516,-377.072,684.484,307.412,87.8394,54.8859,0.0,34.7469,129.591,0.0,0.348854
287.8,1083.0,288.202,400.841,-346.379,682.159,335.779,97.5857,45.1938,0.0,39.2711,153.357,0.0,0.371797
287.6,1079.0,288.002,399.285,-304.792,679.715,374.923,109.024,37.4748,0.0,44.7316,183.295,0.0,0.397082
287.4,1153.0,287.802,476.058,-250.021,676.942,426.921,122.555,31.3672,0.0,51.4027,221.172,0.0,0.425039
287.2,1178.0,287.602,504.172,-179.494,673.828,494.334,138.698,26.542,0.0,59.6658,268.972,0.0,0.456058
287.0,1254.0,287.4017,583.733,-90.4598,670.267,579.807,158.139,22.7185,0.0,70.0628,328.396,0.0,0.490605
286.8,1329.0,287.202,662.55,18.4274,666.45,684.877,181.796,19.6675,0.0,83.3825,399.502,0.0,0.529236
286.6,1449.0,287.002,787,145.546,662,807.545,210.925,17.2091,0.0,100.806,478.032,0.0,0.572621
286.4,1590.0,286.802,933.59,282.902,656.41,939.312,247.29,15.2049,0.0,124.158,552.038,0.0,0.621576
286.2,1649.0,286.602,998.714,415.506,650.286,1065.79,293.451,13.5506,0.0,156.357,601.757,0.0,0.677097
286.0,1812.0,286.4017,1168.58,533.712,643.418,1177.13,353.28,12.1683,0.0,202.263,608.678,0.0,0.740415
285.8,1962.0,286.202,1326.55,649.463,635.452,1284.92,432.933,10.9995,0.0,270.298,569.872,0.0,0.813065
285.6,2124.0,286.002,1497.18,803.16,626.819,1429.98,542.823,10.0009,0.0,375.614,500.644,0.0,0.896977
285.4,2305.0,285.802,1688.16,1062.92,616.842,1679.76,702.01,9.13924,0.0,545.822,421.791,0.0,0.994612
285.2,2797.0,285.602,2192.36,1529.04,604.639,2133.68,949.232,8.38957,0.0,827.125,347.822,0.0,1.10914
285.0,3345.0,285.4017,2756.08,2341.82,588.92,2930.74,1375.88,7.73238,0.0,1260.99,284.901,0.0,1.24471
284.8,4586.0,285.202,4018.56,3639.09,567.439,4206.53,2252.24,7.15242,0.0,1711.85,233.879,0.0,1.40681
284.6,7339.0,285.002,6805.29,5954.98,533.709,6488.69,4570.09,6.63759,0.0,1717.02,193.34,0.0,1.6029
284.4,12716.0,284.802,12241.2,11790,474.825,12264.8,10826,6.17814,0.0,1269.44,161.303,0.0,1.84321
284.2,20094.0,284.602,19721.3,19596.3,372.667,19969,18992,5.76615,0.0,833.191,135.915,0.0,2.14218
284.0,18010.0,284.4017,17761.5,17174.6,248.529,17423.1,16750,5.39511,0.0,549.518,115.656,0.0,2.52069
283.8,8055.0,284.202,7887.32,7711.93,167.682,7879.61,7394.33,5.05963,0.0,377.863,99.3448,0.0,3.0099
283.6,2738.0,284.002,2601.02,2618.13,136.978,2755.11,2388.89,4.75519,0.0,271.72,86.0859,0.0,3.658
283.4,1346.0,283.802,1220.38,1054.15,125.617,1179.77,892.343,4.47799,0.0,203.204,75.2024,0.0,4.54287
283.2,786.0,283.602,666.137,524.277,119.863,644.14,410.928,4.2248,0.0,157.006,66.1842,0.0,5.79749
283.0,525.0,283.4017,408.411,290.44,116.589,407.029,212.106,3.99289,0.0,124.621,58.6441,0.0,7.66539
282.8,419.0,283.202,304.598,169.622,114.402,284.025,116.174,3.77988,0.0,101.147,52.2863,0.0,10.6367
282.6,356.0,283.002,243.399,103.064,112.601,215.665,65.7155,3.58375,0.0,83.6404,46.883,0.0,15.8425
282.4,301.0,282.802,189.767,69.0395,111.233,180.272,37.8,3.40272,0.0,70.2621,42.2571,0.0,26.5504
282.2,334.0,282.602,224.115,69.2682,109.885,179.153,21.8928,3.23526,0.0,59.8229,38.2696,0.0,55.9327
282.0,381.0,282.4017,272.668,152.025,108.332,260.357,12.6815,3.08004,0.0,51.5286,34.8105,0.0,158.257
281.8,588.0,282.202,481.899,387.9,106.101,494.001,7.31141,2.93586,0.0,44.834,31.7922,0.0,407.128
281.6,748.0,282.002,645.604,552.534,102.396,654.93,4.18046,2.8017,0.0,39.3554,29.144,0.0,579.448
281.4,608.0,281.802,509.356,357.563,98.6441,456.208,2.36392,2.67664,0.0,34.8171,26.8088,0.0,389.541
281.2,295.0,281.602,198.414,111.063,96.5861,207.649,1.31909,2.55985,0.0,31.0168,24.7397,0.0,148.013
281.0,194.0,281.4017,98.2893,11.1163,95.7107,106.827,0.725069,2.45063,0.0,27.8033,22.8984,0.0,52.9495
280.8,173.0,281.202,77.8491,-20.4961,95.1509,74.6548,0.392035,2.34832,0.0,25.0625,21.2529,0.0,25.599
280.6,132.0,281.002,37.2027,-34.4331,94.7973,60.3643,0.208252,2.25234,0.0,22.7062,19.7768,0.0,15.4206
280.4,140.0,280.802,45.455,-42.752,94.545,51.793,0.108576,2.16219,0.0,20.6661,18.4478,0.0,10.4083
280.2,133.0,280.602,38.6852,-48.5197,94.3148,45.795,0.0555121,2.07739,0.0,18.8882,17.2472,0.0,7.52671
280.0,117.0,280.4017,22.8581,-52.9213,94.1419,41.2206,0.0278121,1.99752,0.0,17.3296,16.1591,0.0,5.70666
279.8,135.0,280.202,41.0447,-56.4138,93.9553,37.5415,0.0136457,1.92221,0.0,15.9556,15.17,0.0,4.48003
279.6,120.0,280.002,26.2691,-59.2538,93.7309,34.4771,0.00655289,1.85111,0.0,14.7384,14.2683,0.0,3.61267
279.4,131.0,279.802,37.4726,-61.6651,93.5274,31.8623,0.00307849,1.78392,0.0,13.655,13.4441,0.0,2.97611
279.2,114.0,279.602,20.633,-63.7749,93.367,29.592,0.00141424,1.72034,0.0,12.6866,12.6888,0.0,2.49481
279.0,135.0,279.4017,41.8357,-65.5691,93.1643,27.5952,0.000635078,1.66013,0.0,11.8174,11.9951,0.0,2.12191
278.8,101.0,279.202,8.0,-67.1788,93.0,25.8212,0.000278678,1.60304,0.0,11.0345,11.3564,0.0,1.82704
278.6,99.0,279.002,6.0,-68.7675,93.0,24.2325,0.000119459,1.54887,0.0,10.3267,10.767,0.0,1.58979
278.4,104.0,278.802,11.0,-70.1996,93.0,22.8004,5.00103e-05,1.49741,0.0,9.68471,10.2222,0.0,1.39604
278.2,112.0,278.602,19.0,-71.4976,93.0,21.5024,2.04417e-05,1.4485,0.0,9.10073,9.71746,0.0,1.23574
278.0,126.0,278.4017,33.0,-72.6795,93.0,20.3205,8.15639e-06,1.40195,0.0,8.56793,9.24902,0.0,1.1016
277.8,102.0,278.202,9.0,-73.7601,93.0,19.2399,3.17624e-06,1.35763,0.0,8.08052,8.8135,0.0,0.988208
277.6,102.0,278.002,9.0,-74.7517,93.0,18.2483,1.20694e-06,1.31538,0.0,7.6335,8.4079,0.0,0.891494
277.4,101.0,277.802,8.0,-75.6645,93.0,17.3355,4.47447e-07,1.27509,0.0,7.22252,8.02955,0.0,0.808333
277.3,98.0,277.702,5.0,-76.0941,93.0,16.9059,2.69917e-07,1.25564,0.0,7.02935,7.84984,0.0,0.771056