File: XPS/LG4X-result/MX-UT-0.1-Ti2p.csv
#No of rows lightened (2D detector)1(if not using 2D detector, value is 1 and can be ignored!),,,,,,,,,,,,
raw_x,raw_y,corrected x,data-bg,sum_components,bg,sum_fit,TiC,Ti 2+,Ti 3+,Ti 4+,TiC (2p1/2),Ti 2+ (2p1/2),C_7
467.5,14242,467.9195,286,-13575.2,13956,380.831,4.17942e-192,2.09791e-112,6.00131e-96,66.0441,2.57418e-17,0.0371699,314.749
467.2,14236,467.6195,280,-13627.5,13956,328.491,4.66294e-183,1.29579e-106,1.59673e-90,70.2644,1.34564e-15,0.120528,258.106
466.9,14296,467.3195,340,-13669.4,13956,286.648,3.17552e-174,5.68086e-101,2.98413e-85,74.8972,5.90301e-14,0.365552,211.386
466.6,14075,467.0195,119,-13702.1,13956,253.935,1.32e-165,1.76776e-95,3.91745e-80,79.9972,2.17304e-12,1.037,172.901
466.3,14187,466.7195,231,-13726.4,13956,229.623,3.34908e-157,3.90451e-90,3.61235e-75,85.6285,6.71296e-11,2.75152,141.243
466,14232,466.4195,276,-13742.1,13956,213.928,5.18637e-149,6.12123e-85,2.33979e-70,91.8663,1.74025e-09,6.82861,115.233
465.7,14146,466.1195,190,-13747.5,13956,208.544,4.90206e-141,6.8115e-80,1.06454e-65,98.7992,3.7858e-08,15.8511,93.8936
465.4,14139,465.8195,185.382,-13736.3,13953.6,217.356,2.82788e-133,5.37995e-75,3.40212e-61,106.532,6.91115e-07,34.4153,76.4079
465.1,14234,465.5195,286.098,-13700.7,13947.9,247.18,9.95635e-126,3.01609e-70,7.63723e-57,115.191,1.05872e-05,69.8893,62.0992
464.8,14140,465.2195,196.728,-13635.2,13943.3,308.082,2.13937e-118,1.20017e-65,1.20427e-52,124.926,0.000136091,132.75,50.4055
464.5,14421,464.9195,487.305,-13521.1,13933.7,412.626,2.8055e-111,3.38978e-61,1.33386e-48,135.918,0.00146775,235.845,40.8616
464.2,14554,464.6195,633.387,-13347.2,13920.6,573.39,2.24522e-104,6.79565e-57,1.03776e-44,148.387,0.0132788,391.907,33.0825
463.9,14687,464.3195,780.031,-13108.4,13907,798.578,1.09654e-97,9.66991e-53,5.67132e-41,162.602,0.100733,609.125,26.7501
463.6,15006,464.0195,1119.46,-12799.9,13886.5,1086.65,3.26809e-91,9.76664e-49,2.17707e-37,178.892,0.640297,885.514,21.6022
463.3,15354,463.7195,1493.29,-12438.1,13860.7,1422.56,5.94371e-85,7.00162e-45,5.87029e-34,197.664,3.40631,1204.07,17.4227
463,15449,463.4195,1622.93,-12046.1,13826.1,1779.94,6.59635e-79,3.56274e-41,1.11185e-30,219.427,15.1395,1531.34,14.0338
462.7,15814,463.1195,2027.89,-11652.3,13786.1,2133.81,4.46705e-73,1.28677e-37,1.47923e-27,244.818,56.0772,1821.63,11.2897
462.4,16201,462.8195,2465.15,-11252.8,13735.9,2483.07,1.84586e-67,3.29873e-34,1.38237e-24,274.64,172.55,2026.81,9.0706
462.1,16602,462.5195,2923.33,-10812.9,13678.7,2865.82,4.65397e-62,6.00241e-31,9.07426e-22,309.912,439.351,2109.27,7.27835
461.8,17016,462.2195,3405.03,-10278.4,13611,3332.58,7.15954e-57,7.75238e-28,4.18408e-19,351.936,921.674,2053.14,5.83277
461.5,17401,461.9195,3868.18,-9670.91,13532.8,3861.91,6.72004e-52,7.10683e-25,1.35515e-16,402.374,1585.61,1869.26,4.66833
461.2,17647,461.6195,4199.55,-9161.97,13447.4,4285.48,3.84833e-47,4.62432e-22,3.08302e-14,463.35,2226.59,1591.8,3.73159
460.9,17632,461.3195,4277.27,-9005.54,13354.7,4349.18,1.34454e-42,2.13576e-19,4.92681e-12,537.56,2540.78,1267.86,2.979
460.6,17199,461.0195,3934.82,-9342.67,13264.2,3921.51,2.86593e-38,7.00142e-17,5.53037e-10,628.361,2346.23,944.546,2.37516
460.3,16507,460.7195,3318.81,-10041.6,13188.2,3146.61,3.72679e-34,1.62912e-14,4.36057e-08,739.786,1746.76,658.172,1.89129
460,15426,460.4195,2297.95,-10776.2,13128,2351.81,2.95646e-30,2.6906e-12,2.41509e-06,876.3,1045.04,428.965,1.50408
459.7,14816,460.1195,1729.55,-11280.8,13086.4,1805.69,1.43075e-26,3.15411e-10,9.39555e-05,1041.99,501.003,261.499,1.19461
459.4,14746,459.8195,1695.84,-11469.5,13050.2,1580.66,4.22377e-23,2.62444e-08,0.00256751,1238.6,192.002,149.103,0.947607
459.1,14494,459.5195,1477.91,-11415.4,13016.1,1600.71,7.60621e-20,1.54998e-06,0.0492835,1461.69,58.7004,79.518,0.750715
458.8,14673,459.2195,1690.95,-11232,12982,1750.03,8.35522e-17,6.49753e-05,0.664495,1694.82,14.2921,39.6655,0.593973
458.5,14839,458.9195,1896.79,-11009.6,12942.2,1932.62,5.59832e-14,0.00193331,6.29335,1904.58,2.76717,18.5065,0.469356
458.2,14878,458.6195,1979.33,-10803.7,12898.7,2094.99,2.288e-11,0.0408306,41.867,2044.21,0.42553,8.07615,0.370411
457.9,15183,458.3195,2328.88,-10581.4,12854.1,2272.69,5.70352e-09,0.61207,195.642,2072.8,0.0519193,3.29647,0.291951
457.6,15516,458.0195,2715.95,-10168.9,12800.1,2631.11,8.67177e-07,6.5125,642.174,1980.93,0.00502171,1.25852,0.229817
457.3,16112,457.7195,3376.72,-9407.27,12735.3,3328.01,8.04154e-05,49.1842,1480.62,1797.57,0.000384748,0.449405,0.180675
457,16901,457.4195,4246.73,-8422.34,12654.3,4231.93,0.00454807,263.654,2397.92,1570.06,2.33361e-05,0.1501,0.14186
456.7,17425,457.1195,4868.8,-7485.52,12556.2,5070.68,0.156878,1003.17,2727.88,1339.32,1.11988e-06,0.0468911,0.111241
456.4,18670,456.8195,6232.76,-6415.5,12437.2,6021.74,3.30014,2709.23,2179.8,1129.31,4.25011e-08,0.0137014,0.0871196
456.1,19488,456.5195,7196.52,-4882.95,12291.5,7408.53,42.3379,5193.36,1223.51,949.248,1.2751e-09,0.00374462,0.0681416
455.8,20408,456.2195,8284.66,-3443.87,12123.3,8679.47,331.24,7066.14,482.391,799.646,3.0231e-11,0.000957229,0.0532296
455.5,21489,455.9195,9556.17,-2717.52,11932.8,9215.32,1580.39,6824.13,133.595,677.158,5.66228e-13,0.00022887,0.0415278
455.2,22120,455.6195,10399.7,-1840.97,11720.3,9879.34,4598.16,4677.82,25.9885,577.338,8.37616e-15,5.11835e-05,0.0323571
454.9,21779,455.3195,10282.1,-563.285,11496.9,10933.6,8158.16,2275.99,3.55119,495.901,9.78392e-17,1.07062e-05,0.0251794
454.6,21287,455.0195,10008.6,-1236.55,11278.4,10041.9,8826.35,786.013,0.340852,429.167,9.02206e-19,2.09463e-06,0.0195689
454.3,18245,454.7195,7158.91,-4696.31,11086.1,6389.78,5822.93,192.672,0.0229804,374.142,6.56666e-21,3.83306e-07,0.0151891
454,13159,454.4195,2166.21,-8288.39,10992.8,2704.41,2342.42,33.5228,0.0010883,328.452,3.77188e-23,6.5607e-08,0.0117745
453.7,11715,454.1195,749.144,-10096.9,10965.9,868.953,574.57,4.13993,3.62029e-05,290.233,1.70956e-25,1.05032e-08,0.00911587
453.4,11510,453.8195,557.588,-10608.1,10952.4,344.333,85.9346,0.362891,8.45932e-07,258.028,6.1132e-28,1.57274e-09,0.00704853
453.1,11337,453.5195,394.385,-10704.1,10942.6,238.561,7.83669,0.0225783,1.38844e-08,230.696,1.72448e-30,2.20272e-10,0.00544307
452.8,11248,453.2195,313.225,-10727,10934.8,207.782,0.43574,0.000997095,1.60074e-10,207.341,3.83716e-33,2.88555e-11,0.00419793
452.5,11035,452.9195,104.97,-10742.8,10930,187.271,0.0147723,3.12546e-05,1.29633e-12,187.253,6.73413e-36,3.5356e-12,0.00323348
452.2,11078,452.6195,151.187,-10756.9,10926.8,169.872,0.00030534,6.9538e-07,7.37407e-15,169.869,9.32067e-39,4.05196e-13,0.00248743
451.9,11147,452.3195,223.52,-10768.7,10923.5,154.74,3.84795e-06,1.09815e-08,2.94646e-17,154.738,1.01729e-41,4.34342e-14,0.00191107
451.6,11161,452.0195,241.007,-10778.5,10920,141.498,2.9565e-08,1.23093e-10,8.26979e-20,141.497,8.75193e-45,4.35477e-15,0.00146638
451.3,11108,451.7195,191.491,-10786.7,10916.5,129.852,1.38491e-10,9.79341e-13,1.63038e-22,129.85,5.93685e-48,4.0838e-16,0.00112373
451,10914,451.4195,0,-10794.4,10914,119.559,3.95509e-13,5.53053e-15,2.25778e-25,119.558,3.04492e-51,3.58203e-17,0.000860045
450.7,11007,451.1195,93,-10803.6,10914,110.421,6.88611e-16,2.21682e-17,2.19622e-28,110.421,1.29006e-54,2.93874e-18,0.000657395
450.4,11067,450.8195,153,-10811.7,10914,102.276,7.30918e-19,6.30706e-20,1.50062e-31,102.276,0,2.25506e-19,0.000501853
450.3,11176,450.7195,262,-10814.2,10914,99.7572,6.67942e-20,8.28152e-21,1.22193e-32,99.7568,0,9.44146e-20,0.000458532