File: XPS/LG4X-result/MX-UT-0.5-1-O1s.csv
#No of rows lightened (2D detector)1(if not using 2D detector, value is 1 and can be ignored!)
raw_x,raw_y,corrected x,data-bg,sum_components,bg,sum_fit,bg_shirley_,C-O,TiO2,C-Ti-(OH)x
537.5,260.943,537.9255,260.942,68.9159,0.000542006,68.9164,0.000542006,0.002148,9.9809,58.9328
537.3,218.578,537.7255,218.577,73.2412,0.000541151,73.2418,0.000541151,0.00592457,10.4802,62.7551
537.1,108.169,537.526,108.168,77.9897,0.000540283,77.9903,0.000540283,0.0156969,11.0179,66.9562
536.9,29.3366,537.3255,29.336,83.2249,0.000539988,83.2254,0.000539988,0.0399489,11.5979,71.587
536.7,186.678,537.126,186.678,89.0299,0.000539713,89.0304,0.000539713,0.0976628,12.2251,76.7072
536.5,108.365,536.9255,108.365,95.5206,0.000538755,95.5211,0.000538755,0.229344,12.9044,82.3868
536.3,29.5548,536.7255,29.5543,102.868,0.000538432,102.869,0.000538432,0.517346,13.6419,88.7089
536.1,134.79,536.526,134.789,111.337,0.00053824,111.338,0.00053824,1.12101,14.4444,95.7718
535.9,205.534,536.3255,205.534,121.346,0.000537361,121.347,0.000537361,2.33329,15.3198,103.693
535.7,251.11,536.126,251.11,133.556,0.000536672,133.557,0.000536672,4.66513,16.2771,112.614
535.5,170.792,535.9255,170.792,148.991,0.000535718,148.992,0.000535718,8.95968,17.327,122.705
535.3,182.265,535.7255,182.265,169.183,0.000535126,169.184,0.000535126,16.5293,18.4816,134.172
535.1,230.203,535.526,230.202,196.318,0.000533978,196.318,0.000533978,29.2923,19.7554,147.27
534.9,229.195,535.3255,229.195,233.338,0.000532709,233.339,0.000532709,49.8636,21.1655,162.309
534.7,136.759,535.126,136.759,283.942,0.000531894,283.943,0.000531894,81.5359,22.7317,179.675
534.5,306.504,534.9255,306.504,352.394,0.000531116,352.395,0.000531116,128.07,24.4782,199.846
534.3,385.414,534.7255,385.414,443.091,0.000530034,443.092,0.000530034,193.233,26.4335,223.425
534.1,471.82,534.526,471.82,559.858,0.000528327,559.859,0.000528327,280.058,28.6323,251.168
533.9,740.806,534.3255,740.805,705.046,0.000526066,705.046,0.000526066,389.897,31.1166,284.032
533.7,900.312,534.126,900.311,878.588,0.000523027,878.588,0.000523027,521.417,33.938,323.233
533.5,945.232,533.9255,945.232,1077.28,0.000519343,1077.28,0.000519343,669.814,37.1601,370.307
533.3,1215.82,533.7255,1215.82,1294.58,0.000515037,1294.58,0.000515037,826.528,40.8624,427.192
533.1,1714.59,533.526,1714.59,1521.13,0.000509448,1521.13,0.000509448,979.705,45.1447,496.284
532.9,1743.89,533.3255,1743.88,1746.08,0.000502719,1746.09,0.000502719,1115.49,50.1346,580.458
532.7,1923.04,533.126,1923.04,1958.96,0.000495042,1958.96,0.000495042,1220.03,55.9962,682.931
532.5,2311.96,532.9255,2311.96,2151.51,0.000486593,2151.51,0.000486593,1281.77,62.9439,806.795
532.3,2320.16,532.7255,2320.16,2318.68,0.000477411,2318.68,0.000477411,1293.56,71.2619,953.867
532.1,2419.88,532.526,2419.88,2457.71,0.000467657,2457.71,0.000467657,1253.99,81.3335,1122.4
531.9,2517.39,532.3255,2517.39,2564.77,0.000458158,2564.77,0.000458158,1167.71,93.6846,1303.38
531.7,2470.64,532.126,2470.64,2630.19,0.000447568,2630.19,0.000447568,1044.5,109.052,1476.63
531.5,2617,531.9255,2617,2636.55,0.000437049,2636.55,0.000437049,897.469,128.494,1610.58
531.3,2631.19,531.7255,2631.19,2565.8,0.000426601,2565.8,0.000426601,740.735,153.568,1671.5
531.1,2435.4,531.526,2435.4,2415.05,0.000415906,2415.05,0.000415906,587.274,186.642,1641.13
530.9,2287.68,531.3255,2287.68,2207.52,0.000406456,2207.52,0.000406456,447.252,231.446,1528.82
530.7,1881.27,531.126,1881.27,1986.36,0.000397628,1986.36,0.000397628,327.189,294.1,1365.07
530.5,1860.24,530.9255,1860.24,1798.88,0.000389976,1798.88,0.000389976,229.921,385.132,1183.82
530.3,1721.02,530.7255,1721.02,1688.4,0.000382457,1688.4,0.000382457,155.2,523.68,1009.52
530.1,1885.66,530.526,1885.66,1701.87,0.000375419,1701.87,0.000375419,100.633,746.625,854.609
529.9,2177.29,530.3255,2177.29,1914.33,0.000367246,1914.33,0.000367246,62.6789,1128.78,722.871
529.7,2666.95,530.126,2666.95,2471.69,0.000357964,2471.69,0.000357964,37.5005,1820.81,613.378
529.5,3478.87,529.9255,3478.87,3582.04,0.000346119,3582.04,0.000346119,21.552,3037.19,523.299
529.3,4758.05,529.7255,4758.05,4885.15,0.000330595,4885.15,0.000330595,11.8979,4423.88,449.38
529.1,4649.3,529.526,4649.3,4568.73,0.000311,4568.73,0.000311,6.30942,4173.81,388.603
528.9,3192.41,529.3255,3192.41,3045.19,0.000292766,3045.19,0.000292766,3.21397,2703.58,338.404
528.7,1846.46,529.126,1846.46,1919.22,0.000281115,1919.22,0.000281115,1.57263,1620.95,296.694
528.5,1046.1,528.9255,1046.1,1282.22,0.000274362,1282.22,0.000274362,0.739176,1019.67,261.808
528.3,579.44,528.7255,579.439,917.109,0.000270901,917.109,0.000270901,0.333735,684.347,232.428
528.1,197.828,528.526,197.828,693.443,0.000268738,693.443,0.000268738,0.14474,485.783,207.515
527.9,256.584,528.3255,256.584,546.987,0.000267833,546.987,0.000267833,0.0602993,360.677,186.25
527.7,220.434,528.126,220.434,445.525,0.00026671,445.525,0.00026671,0.0241306,277.519,167.981
527.5,206.05,527.9255,206.05,371.939,0.000265908,371.939,0.000265908,0.00927596,219.738,152.192
527.3,370.925,527.7255,370.925,316.56,0.000264959,316.56,0.000264959,0.00342518,178.089,138.467
527.1,79.6127,527.526,79.6124,273.614,0.000263783,273.614,0.000263783,0.0012149,147.141,126.471
526.9,81.0,527.3255,80.9997,239.483,0.00026329,239.483,0.00026329,0.000413936,123.549,115.934
526.7,64.0,527.126,63.9997,211.802,0.000263124,211.802,0.000263124,0.000135475,105.169,106.632
526.5,268.0,526.9255,268,188.967,0.000262605,188.967,0.000262605,4.25913e-05,90.5816,98.3855
526.3,172.0,526.7255,172,169.858,0.000261639,169.859,0.000261639,1.28622e-05,78.8159,91.0425
526.1,238.0,526.526,238,153.67,0.000261228,153.67,0.000261228,3.73116e-06,69.1919,84.4783
525.9,148.0,526.3255,148,139.81,0.000260541,139.81,0.000260541,1.0397e-06,61.2217,78.5884
525.7,20.0,526.126,19.9997,127.833,0.000259869,127.833,0.000259869,2.78293e-07,54.5484,73.2848
525.5,251.0,525.9255,251,117.399,0.000259483,117.4,0.000259483,7.15539e-08,48.906,68.4933
525.3,355.0,525.7255,355,108.244,0.000258283,108.245,0.000258283,1.76725e-08,44.0934,64.151
525.1,129.0,525.526,129,100.16,0.000256906,100.16,0.000256906,4.19273e-09,39.9558,60.204
525.0,193.0,525.4255,193,96.4657,0.000256642,96.4659,0.000256642,2.01162e-09,38.1015,58.3642