File: XPS/LG4X-result/MX-UT-0.5-F1s.csv
#No of rows lightened (2D detector)1(if not using 2D detector, value is 1 and can be ignored!)
raw_x,raw_y,corrected x,data-bg,sum_components,bg,sum_fit,Ti-F,TiF2
690.3,8165.0,690.953,181.0,-7911.01,7984.0,72.9928,65.1683,7.82453
690.2,8095.0,690.8528,111.0,-7908.6,7984.0,75.404,67.3507,8.05327
690.1,8153.0,690.7528,169.0,-7906.06,7984.0,77.9365,69.6443,8.29217
690.0,8128.0,690.6528,144.0,-7903.4,7984.0,80.5986,72.0567,8.54183
689.9,8113.0,690.553,129.0,-7900.6,7984.0,83.3992,74.5963,8.80292
689.8,8170.0,690.453,186.0,-7897.65,7984.0,86.3482,77.2721,9.07613
689.7,8108.0,690.3528,124.0,-7894.54,7984.0,89.4563,80.094,9.36224
689.6,8076.0,690.2528,92.0,-7891.27,7984.0,92.7349,83.0729,9.66205
689.5,8080.0,690.1528,96.0,-7887.8,7984.0,96.1969,86.2204,9.97646
689.4,8231.0,690.053,247.0,-7884.14,7984.0,99.8561,89.5496,10.3064
689.3,8182.0,689.953,198.0,-7880.27,7984.0,103.728,93.0747,10.653
689.2,8162.0,689.8528,178.0,-7876.17,7984.0,107.829,96.8112,11.0173
689.1,8187.0,689.7528,203.0,-7871.82,7984.0,112.177,100.776,11.4005
689.0,8113.0,689.6528,129.0,-7867.21,7984.0,116.793,104.989,11.8041
688.9,8130.0,689.553,146.0,-7862.3,7984.0,121.7,109.471,12.2293
688.8,8064.0,689.453,80.0,-7857.08,7984.0,126.922,114.244,12.6779
688.7,8213.0,689.3528,229.0,-7851.51,7984.0,132.486,119.334,13.1516
688.6,8240.0,689.2528,256.0,-7845.58,7984.0,138.423,124.771,13.6522
688.5,8082.0,689.1528,98.0,-7839.23,7984.0,144.768,130.586,14.1819
688.4,7984.0,689.053,0.0,-7832.44,7984.0,151.558,136.815,14.7428
688.3,8037.0,688.953,53.0227,-7825.14,7983.98,158.835,143.497,15.3376
688.2,8171.0,688.8528,187.125,-7817.23,7983.87,166.647,150.678,15.9689
688.1,8171.0,688.7528,187.286,-7808.67,7983.71,175.048,158.409,16.6399
688.0,8162.0,688.6528,178.442,-7799.46,7983.56,184.099,166.745,17.3538
687.9,8165.0,688.553,181.596,-7789.54,7983.4,193.867,175.752,18.1145
687.8,8176.0,688.453,192.756,-7778.81,7983.24,204.429,185.503,18.926
687.7,8241.0,688.3528,257.949,-7767.18,7983.05,215.875,196.082,19.7931
687.6,8241.0,688.2528,258.17,-7754.52,7982.83,228.305,207.584,20.7208
687.5,8210.0,688.1528,227.378,-7740.79,7982.62,241.833,220.119,21.7148
687.4,8364.0,688.053,381.639,-7725.77,7982.36,256.594,233.812,22.7818
687.3,8348.0,687.953,365.959,-7709.3,7982.04,272.738,248.809,23.9288
687.2,8286.0,687.8528,304.245,-7691.31,7981.75,290.444,265.28,25.164
687.1,8370.0,687.7528,388.542,-7671.54,7981.46,309.918,283.422,26.4968
687.0,8435.0,687.6528,453.902,-7649.7,7981.1,331.401,303.463,27.9374
686.9,8438.0,687.553,457.292,-7625.53,7980.71,355.175,325.677,29.4979
686.8,8330.0,687.453,349.638,-7598.79,7980.36,381.573,350.382,31.1917
686.7,8266.0,687.3528,285.91,-7569.1,7980.09,410.992,377.958,33.0343
686.6,8392.0,687.2528,412.208,-7535.89,7979.79,443.903,408.859,35.0435
686.5,8552.0,687.1528,572.63,-7498.5,7979.37,480.87,443.63,37.2398
686.4,8465.0,687.053,486.083,-7456.34,7978.92,522.576,482.929,39.6469
686.3,8550.0,686.953,571.536,-7408.62,7978.46,569.846,527.554,42.2923
686.2,8457.0,686.8528,478.985,-7354.32,7978.01,623.691,578.483,45.2081
686.1,8741.0,686.7528,763.517,-7292.13,7977.48,685.35,636.918,48.4319
686.0,8717.0,686.6528,740.16,-7220.48,7976.84,756.357,704.349,52.008
685.9,8742.0,686.553,765.805,-7137.58,7976.2,838.619,782.631,55.9886
685.8,8863.0,686.453,887.512,-7040.97,7975.49,934.519,874.083,60.436
685.7,9001.0,686.3528,1026.33,-6927.63,7974.67,1047.04,981.613,65.4247
685.6,9268.0,686.2528,1294.32,-6793.77,7973.68,1179.9,1108.86,71.0441
685.5,9172.0,686.1528,1199.39,-6634.89,7972.61,1337.72,1260.32,77.4023
685.4,9202.0,686.053,1230.43,-6445.49,7971.57,1526.08,1441.45,84.631
685.3,9533.0,685.953,1562.63,-6218.89,7970.37,1751.48,1658.59,92.8915
685.2,9846.0,685.8528,1877.1,-5947.98,7968.9,2020.92,1918.54,102.383
685.1,10369.0,685.7528,2401.93,-5626.29,7967.07,2340.78,2227.43,113.351
685.0,10822.0,685.6528,2857.18,-5250.31,7964.82,2714.51,2588.41,126.103
684.9,11136.0,685.553,3173.76,-4823.86,7962.24,3138.38,2997.36,141.024
684.8,11781.0,685.453,3821.76,-4364.37,7959.24,3594.88,3436.28,158.597
684.7,12137.0,685.3528,4181.18,-3911.43,7955.82,4044.39,3864.97,179.423
684.6,12390.0,685.2528,4437.87,-3532.86,7952.13,4419.27,4215.02,204.244
684.5,12662.0,685.1528,4713.79,-3319.29,7948.21,4628.93,4394.97,233.954
684.4,12299.0,685.053,4354.67,-3358.36,7944.33,4585.98,4316.41,269.572
684.3,12053.0,684.953,4112.29,-3689.87,7940.71,4250.84,3938.68,312.163
684.2,11585.0,684.8528,3647.61,-4268.92,7937.39,3668.47,3305.86,362.617
684.1,10980.0,684.7528,3045.47,-4972.81,7934.53,2961.72,2540.5,421.222
684.0,10241.0,684.6528,2308.77,-5655.68,7932.23,2276.55,1789.64,486.91
683.9,9762.0,684.553,1831.54,-6211.93,7930.46,1718.53,1162.41,556.121
683.8,9384.0,684.453,1454.94,-6605.58,7929.06,1323.48,701.97,621.509
683.7,8978.0,684.3528,1050.02,-6859.2,7927.98,1068.78,397.512,671.271
683.6,8712.0,684.2528,784.802,-7023.95,7927.2,903.244,212.591,690.653
683.5,8678.0,684.1528,751.459,-7151.7,7926.54,774.838,107.914,666.924
683.4,8503.0,684.053,577.028,-7277.2,7925.97,648.771,52.1503,596.621
683.3,8379.0,683.953,453.469,-7411.39,7925.53,514.141,24.0272,490.114
683.2,8282.0,683.8528,356.815,-7546.08,7925.18,379.109,10.5582,368.551
683.1,8225.0,683.7528,300.097,-7666.16,7924.9,258.743,4.42392,254.319
683.0,8262.0,683.6528,337.369,-7760.74,7924.63,163.886,1.76646,162.12
682.9,8093.0,683.553,168.586,-7827.45,7924.41,96.9648,0.671665,96.2931
682.8,8086.0,683.453,161.727,-7870.29,7924.27,53.9788,0.242998,53.7358
682.7,7990.0,683.3528,65.8247,-7895.73,7924.18,28.4443,0.0835807,28.3608
682.6,8070.0,683.2528,145.915,-7909.84,7924.08,14.2476,0.0273106,14.2203
682.5,7976.0,683.1528,52.0,-7917.2,7924.0,6.7997,0.00847174,6.79123
682.4,7924.0,683.053,0.0,-7920.9,7924.0,3.09517,0.00249314,3.09267
682.3,8151.0,682.953,227.0,-7922.66,7924.0,1.34393,0.000695656,1.34324
682.2,8189.0,682.8528,265.0,-7923.44,7924.0,0.556411,0.000183944,0.556227
682.1,8006.0,682.7528,82.0,-7923.78,7924.0,0.219505,4.60688e-05,0.219459
682.0,8087.0,682.6528,163.0,-7923.92,7924.0,0.0824478,1.09237e-05,0.0824369
681.9,8070.0,682.553,146.0,-7923.97,7924.0,0.0294605,2.45134e-06,0.0294581
681.8,8052.0,682.453,128.0,-7923.99,7924.0,0.0100065,5.20415e-07,0.0100059
681.7,7992.0,682.3528,68.0,-7924,7924.0,0.00322827,1.04489e-07,0.00322816
681.6,7992.0,682.2528,68.0,-7924,7924.0,0.000988564,1.98352e-08,0.000988544
681.5,7937.0,682.1528,13.0,-7924,7924.0,0.00028715,3.55903e-09,0.000287146
681.4,7976.0,682.053,52.0,-7924,7924.0,7.90733e-05,6.03472e-10,7.90727e-05