File: XPS/LG4X-result/MX-UT-0.1-O1s.csv
#No of rows lightened (2D detector)1(if not using 2D detector, value is 1 and can be ignored!),,,,,,,,
raw_x,raw_y,corrected x,data-bg,sum_components,bg,sum_fit,bg_shirley_,C-O,TiO2
540,134,540.6539,-53.099,3.43468e-06,187.099,187.099,187.099,3.43468e-06,9.95344e-174
539.8,139,540.4539,-48.099,9.16432e-06,187.099,187.099,187.099,9.16432e-06,3.67673e-167
539.6,52,540.2539,-135.099,2.38666e-05,187.099,187.099,187.099,2.38666e-05,1.01953e-160
539.4,320,540.0539,132.901,6.06676e-05,187.099,187.099,187.099,6.06676e-05,2.12222e-154
539.2,89,539.8539,-98.099,0.000150522,187.099,187.099,187.099,0.000150522,3.31611e-148
539,117,539.6539,-70.099,0.000364516,187.099,187.099,187.099,0.000364516,3.88973e-142
538.8,254,539.4539,66.901,0.000861611,187.099,187.1,187.099,0.000861611,3.425e-136
538.6,178,539.2539,-9.09902,0.00198784,187.099,187.101,187.099,0.00198784,2.26387e-130
538.4,102,539.0539,-85.099,0.00447639,187.099,187.104,187.099,0.00447639,1.1233e-124
538.2,20,538.8539,-167.099,0.00983898,187.099,187.109,187.099,0.00983898,4.18395e-119
538,169,538.6539,-18.099,0.0211081,187.099,187.12,187.099,0.0211081,1.16985e-113
537.8,99,538.4539,-88.099,0.0442,187.099,187.143,187.099,0.0442,2.4554e-108
537.6,104,538.2539,-83.099,0.0903385,187.099,187.189,187.099,0.0903385,3.86872e-103
537.4,0,538.0539,-187.099,0.180218,187.099,187.279,187.099,0.180218,4.57574e-98
537.2,219.483,537.8539,32.3836,0.350914,187.099,187.45,187.099,0.350914,4.06262e-93
537,91.0526,537.6539,-96.0464,0.666929,187.099,187.766,187.099,0.666929,2.70771e-88
536.8,218.836,537.4539,31.7371,1.23718,187.099,188.336,187.099,1.23718,1.35472e-83
536.6,195.479,537.2539,8.38024,2.24008,187.099,189.339,187.099,2.24008,5.08798e-79
536.4,201.303,537.0539,14.2044,3.95886,187.099,191.058,187.099,3.95886,1.43447e-74
536.2,158.076,536.8539,-29.0227,6.82892,187.099,193.928,187.099,6.82892,3.03592e-70
536,312.989,536.6539,125.89,11.4977,187.099,198.597,187.099,11.4977,4.82323e-66
535.8,94.5198,536.4539,-92.5793,18.8949,187.099,205.994,187.099,18.8949,5.75224e-62
535.6,195.162,536.2539,8.0627,30.3078,187.099,217.407,187.099,30.3078,5.14975e-58
535.4,206.178,536.0539,19.0787,47.4505,187.099,234.55,187.099,47.4505,3.46088e-54
535.2,272.246,535.8539,85.1472,72.5109,187.099,259.61,187.099,72.5109,1.74597e-50
535,381.529,535.6539,194.43,108.154,187.099,295.253,187.099,108.154,6.61207e-47
534.8,330.778,535.4539,143.679,157.455,187.099,344.554,187.099,157.455,1.8797e-43
534.6,364.948,535.2539,177.849,223.741,187.099,410.84,187.099,223.741,4.01135e-40
534.4,372.265,535.0539,185.166,310.322,187.099,497.421,187.099,310.322,6.42604e-37
534.2,664.891,534.8539,477.792,420.102,187.099,607.201,187.099,420.102,7.72763e-34
534,689.277,534.6539,502.178,555.102,187.099,742.201,187.099,555.102,6.9759e-31
533.8,886.127,534.4539,699.028,715.924,187.099,903.023,187.099,715.924,4.7272e-28
533.6,1036.58,534.2539,849.477,901.233,187.099,1088.33,187.099,901.233,2.40469e-25
533.4,1230.72,534.0539,1043.62,1107.35,187.099,1294.44,187.099,1107.35,9.18256e-23
533.2,1563.65,533.8539,1376.55,1328.02,187.099,1515.12,187.099,1328.02,2.6322e-20
533,1709.51,533.6539,1522.41,1554.55,187.099,1741.64,187.099,1554.55,5.66403e-18
532.8,2079.3,533.4539,1892.2,1776.14,187.099,1963.24,187.099,1776.14,9.14919e-16
532.6,2291.88,533.2539,2104.78,1980.74,187.099,2167.84,187.099,1980.74,1.1094e-13
532.4,2354.81,533.0539,2167.71,2156.03,187.099,2343.13,187.099,2156.03,1.00983e-11
532.2,2355.48,532.8539,2168.38,2290.64,187.099,2477.74,187.099,2290.64,6.90011e-10
532,2555.22,532.6539,2368.12,2375.39,187.099,2562.49,187.099,2375.39,3.53928e-08
531.8,2704.62,532.4539,2517.52,2404.3,187.099,2591.4,187.099,2404.3,1.36278e-06
531.6,2478.7,532.2539,2291.6,2375.3,187.099,2562.4,187.099,2375.3,3.93898e-05
531.4,2544.71,532.0539,2357.62,2290.47,187.099,2477.57,187.099,2290.47,0.000854662
531.2,2368.41,531.8539,2181.31,2155.81,187.099,2342.91,187.099,2155.79,0.0139205
531,2005.11,531.6539,1818.01,1980.63,187.099,2167.73,187.099,1980.46,0.170203
530.8,1912.2,531.4539,1725.1,1777.38,187.099,1964.48,187.099,1775.82,1.56217
530.6,1727.55,531.2539,1540.45,1564.97,187.099,1752.07,187.099,1554.21,10.7632
530.4,1596.33,531.0539,1409.23,1383.36,187.099,1570.45,187.099,1327.69,55.6679
530.2,1562.17,530.8539,1375.07,1323.16,187.099,1510.26,187.099,1107.03,216.132
530,1944.21,530.6539,1757.11,1530.86,187.099,1717.96,187.099,900.941,629.916
529.8,2214.46,530.4539,2027.36,2093.82,187.099,2280.92,187.099,715.666,1378.15
529.6,2896.56,530.2539,2709.46,2818.29,187.099,3005.39,187.099,554.882,2263.41
529.4,3480.74,530.0539,3293.65,3210.39,187.099,3397.49,187.099,419.92,2790.47
529.2,3154.66,529.8539,2967.56,2892.7,187.099,3079.8,187.099,310.176,2582.52
529,2213.52,529.6539,2026.42,2017.79,187.099,2204.89,187.099,223.628,1794.16
528.8,1116.3,529.4539,929.205,1093.05,187.099,1280.15,187.099,157.37,935.682
528.6,657.308,529.2539,470.21,474.399,187.099,661.498,187.099,108.091,366.308
528.4,387.161,529.0539,200.062,180.117,187.099,367.215,187.099,72.4665,107.65
528.2,360.653,528.8539,173.555,71.1681,187.099,258.267,187.099,47.4198,23.7484
528,231.771,528.6539,44.6723,34.2199,187.099,221.318,187.099,30.2871,3.93281
527.8,279.77,528.4539,92.6718,19.3702,187.099,206.469,187.099,18.8813,0.488903
527.6,219.604,528.2539,32.5059,11.5346,187.099,198.633,187.099,11.489,0.045624
527.4,0,528.0539,-187.099,6.82671,187.099,193.925,187.099,6.82351,0.00319606
527.2,36,527.8539,-151.099,3.95575,187.099,191.054,187.099,3.95558,0.000168068
527,154,527.6539,-33.0986,2.23815,187.099,189.337,187.099,2.23815,6.6345e-06
526.8,304,527.4539,116.901,1.23607,187.099,188.335,187.099,1.23607,1.96599e-07
526.6,259,527.2539,71.9015,0.666304,187.099,187.765,187.099,0.666304,4.37325e-09
526.4,231,527.0539,43.9015,0.350573,187.099,187.449,187.099,0.350573,7.3026e-11
526.2,175,526.8539,-12.0985,0.180037,187.099,187.279,187.099,0.180037,9.15381e-13
526,165,526.6539,-22.0985,0.0902442,187.099,187.189,187.099,0.0902442,8.61344e-15
525.8,210,526.4539,22.9015,0.0441523,187.099,187.143,187.099,0.0441523,6.08418e-17
525.6,339,526.2539,151.901,0.0210845,187.099,187.12,187.099,0.0210845,3.2261e-19
525.4,173,526.0539,-14.0985,0.00982764,187.099,187.108,187.099,0.00982764,1.28411e-21
525.2,355,525.8539,167.901,0.00447107,187.099,187.103,187.099,0.00447107,3.8369e-24
525,235,525.6539,47.9015,0.00198541,187.099,187.101,187.099,0.00198541,8.60613e-27