File: XPS/LG4X-result/MX-UT-0.5-O1s_nobg.csv
#No of rows lightened (2D detector)1(if not using 2D detector, value is 1 and can be ignored!)
raw_x,raw_y,corrected x,data-bg,sum_components,bg,sum_fit,bg_shirley_,C_1,C_2,C_3
540.0,223.0,540.6539,66.8589,1.321,156.141,157.462,156.141,4.20814e-07,1.321,1.23969e-102
539.8,150.0,540.4539,-6.14111,1.3711,156.141,157.512,156.141,1.23327e-06,1.3711,1.08751e-98
539.6,244.0,540.2539,87.8589,1.42412,156.141,157.565,156.141,3.52032e-06,1.42411,8.01891e-95
539.4,313.0,540.0539,156.859,1.48027,156.141,157.621,156.141,9.78735e-06,1.48026,4.97004e-91
539.2,210.0,539.854,53.8589,1.53982,156.141,157.681,156.141,2.65036e-05,1.53979,2.5892e-87
539.0,0.0,539.6539,-156.141,1.60306,156.141,157.744,156.141,6.99043e-05,1.60299,1.13379e-83
538.8,277.42,539.4539,121.279,1.67035,156.141,157.811,156.141,0.000179581,1.67017,4.17313e-80
538.6,142.998,539.2539,-13.1432,1.74211,156.141,157.883,156.141,0.000449338,1.74166,1.29108e-76
538.4,123.405,539.0539,-32.7361,1.81894,156.141,157.96,156.141,0.00109508,1.81784,3.35742e-73
538.2,293.89,538.854,137.749,1.90173,156.141,158.043,156.141,0.0025994,1.89914,7.33872e-70
538.0,123.592,538.6539,-32.5486,1.99202,156.141,158.133,156.141,0.0060098,1.98601,1.34833e-66
537.8,127.018,538.4539,-29.1229,2.09252,156.141,158.234,156.141,0.0135333,2.07899,2.08226e-63
537.6,235.545,538.2539,79.4043,2.20834,156.141,158.349,156.141,0.029683,2.17866,2.70293e-60
537.4,157.277,538.0539,1.13597,2.34908,156.141,158.49,156.141,0.0634114,2.28567,2.94914e-57
537.2,205.917,537.854,49.7762,2.53272,156.141,158.674,156.141,0.131943,2.40077,2.7047e-54
537.0,36.2841,537.6539,-119.857,2.7922,156.141,158.933,156.141,0.2674,2.5248,2.08499e-51
536.8,105.444,537.4539,-50.6967,3.18653,156.141,159.328,156.141,0.52783,2.6587,1.35098e-48
536.6,282.053,537.2539,125.912,3.81836,156.141,159.959,156.141,1.01481,2.80354,7.35798e-46
536.4,49.4916,537.0539,-106.65,4.86092,156.141,161.002,156.141,1.90035,2.96057,3.36844e-43
536.2,64.6302,536.854,-91.511,6.59727,156.141,162.738,156.141,3.46609,3.13117,1.29617e-40
536.0,295.134,536.6539,138.992,9.47448,156.141,165.616,156.141,6.1575,3.31697,4.19232e-38
535.8,131.804,536.4539,-24.3372,14.1742,156.141,170.315,156.141,10.6543,3.51983,1.13975e-35
535.6,215.483,536.2539,59.3423,21.6978,156.141,177.839,156.141,17.9559,3.7419,2.60451e-33
535.4,119.024,536.0539,-37.1168,33.46,156.141,189.601,156.141,29.4743,3.9857,5.0027e-31
535.2,379.715,535.854,223.574,51.3778,156.141,207.519,156.141,47.1237,4.25414,8.07691e-29
535.0,390.699,535.6539,234.558,77.9331,156.141,234.074,156.141,73.3825,4.55067,1.09609e-26
534.8,169.514,535.4539,13.3731,116.181,156.141,272.323,156.141,111.302,4.87937,1.25029e-24
534.6,244.064,535.2539,87.9227,169.671,156.141,325.813,156.141,164.426,5.24506,1.19877e-22
534.4,222.928,535.0539,66.7866,242.244,156.141,398.385,156.141,236.591,5.65352,9.66105e-21
534.2,450.083,534.854,293.942,337.687,156.141,493.828,156.141,331.575,6.11169,6.54445e-19
534.0,634.705,534.6539,478.564,459.237,156.141,615.379,156.141,452.609,6.628,3.72636e-17
533.8,745.995,534.4539,589.854,608.973,156.141,765.114,156.141,601.76,7.21273,1.78343e-15
533.6,902.754,534.2539,746.613,787.135,156.141,943.276,156.141,779.256,7.87857,7.17449e-14
533.4,1161.92,534.0539,1005.78,991.51,156.141,1147.65,156.141,982.868,8.64125,2.42598e-12
533.2,1519.01,533.854,1362.87,1216.97,156.141,1373.11,156.141,1207.45,9.52058,6.89517e-11
533.0,1578.23,533.6539,1422.09,1455.31,156.141,1611.45,156.141,1444.77,10.5417,1.64727e-09
532.8,2012.89,533.4539,1856.75,1695.52,156.141,1851.66,156.141,1683.79,11.7368,3.30785e-08
532.6,2211.35,533.2539,2055.21,1924.47,156.141,2080.61,156.141,1911.32,13.1481,5.58327e-07
532.4,2181.56,533.0539,2025.42,2128.01,156.141,2284.15,156.141,2113.18,14.8312,7.92124e-06
532.2,2452.98,532.854,2296.84,2292.47,156.141,2448.61,156.141,2275.61,16.8609,9.44625e-05
532.0,2228.59,532.6539,2072.45,2406.15,156.141,2562.29,156.141,2386.81,19.34,0.000946864
531.8,2664.54,532.4539,2508.39,2460.76,156.141,2616.9,156.141,2438.34,22.4126,0.0079777
531.6,2676.76,532.2539,2520.62,2452.56,156.141,2608.7,156.141,2426.21,26.2856,0.0564975
531.4,2496.09,532.0539,2339.94,2382.97,156.141,2539.12,156.141,2351.37,31.2663,0.336312
531.2,2602.37,531.854,2446.23,2259.09,156.141,2415.23,156.141,2219.58,37.8259,1.68274
531.0,2189.1,531.6539,2032.96,2094.5,156.141,2250.64,156.141,2040.7,46.7203,7.07708
530.8,2032.14,531.4539,1876,1911.69,156.141,2067.83,156.141,1827.45,59.2273,25.018
530.6,1863.26,531.2539,1707.12,1745.93,156.141,1902.07,156.141,1593.93,77.662,74.3383
530.4,1819.19,531.0539,1663.05,1646.39,156.141,1802.53,156.141,1354.1,106.626,185.667
530.2,1722.77,530.854,1566.63,1666.8,156.141,1822.94,156.141,1120.44,156.577,389.779
530.0,2113.86,530.6539,1957.72,1847,156.141,2003.14,156.141,902.995,256.205,687.803
529.8,2364.92,530.4539,2208.78,2225.22,156.141,2381.36,156.141,708.826,496.225,1020.17
529.6,3129.59,530.2539,2973.45,2921.05,156.141,3077.19,156.141,541.941,1107.25,1271.86
529.4,4117.95,530.0539,3961.81,3992.02,156.141,4148.16,156.141,403.573,2255.63,1332.82
529.2,4830.72,529.854,4674.58,4704.64,156.141,4860.78,156.141,292.718,3237.94,1173.99
529.0,4273.44,529.6539,4117.3,3988.24,156.141,4144.38,156.141,206.793,2912.25,869.195
528.8,2508.97,529.4539,2352.83,2379.02,156.141,2535.16,156.141,142.291,1695.81,540.92
528.6,1458.1,529.2539,1301.96,1148.85,156.141,1304.99,156.141,95.3628,770.536,282.95
528.4,647.458,529.0539,491.318,548.149,156.141,704.289,156.141,62.2498,361.491,124.408
528.2,479.287,528.854,323.146,287.977,156.141,444.117,156.141,39.578,202.421,45.9781
528.0,245.183,528.6539,89.0421,169.48,156.141,325.621,156.141,24.5092,130.688,14.2828
527.8,293.024,528.4539,136.883,110.53,156.141,266.671,156.141,14.7829,92.018,3.72939
527.6,171.748,528.2539,15.6076,78.0381,156.141,234.179,156.141,8.6846,68.535,0.81851
527.4,258.422,528.0539,102.281,58.2387,156.141,214.379,156.141,4.96932,53.1184,0.150998
527.2,204.385,527.854,48.2449,45.2139,156.141,201.354,156.141,2.76951,42.421,0.0234143
527.0,161.806,527.6539,5.66522,36.1878,156.141,192.328,156.141,1.50337,34.6814,0.00305178
526.8,0.0,527.4539,-156.141,29.69,156.141,185.831,156.141,0.794851,28.8948,0.000334338
526.6,190.0,527.2539,33.8594,24.8613,156.141,181.002,156.141,0.409321,24.452,3.0788e-05
526.4,205.0,527.0539,48.8594,21.1702,156.141,177.311,156.141,0.205305,20.9649,2.38307e-06
526.2,29.0,526.854,-127.141,18.2771,156.141,174.418,156.141,0.100298,18.1768,1.55044e-07
526.0,98.0,526.6539,-58.1406,15.9596,156.141,172.1,156.141,0.047725,15.9119,8.47883e-09
525.8,181.0,526.4539,24.8594,14.0689,156.141,170.209,156.141,0.0221185,14.0467,3.89742e-10
525.6,169.0,526.2539,12.8594,12.5022,156.141,168.643,156.141,0.0099844,12.4922,1.50585e-11
525.4,336.0,526.0539,179.859,11.1871,156.141,167.328,156.141,0.00438982,11.1827,4.89042e-13
525.2,319.0,525.854,162.859,10.0712,156.141,166.212,156.141,0.00187988,10.0693,1.33498e-14
525.0,193.0,525.6539,36.8594,9.11543,156.141,165.256,156.141,0.000784097,9.11464,3.0631e-16