File: XPS/LG4X-result/MX-UT-0.1-1-Ti2p.csv
#No of rows lightened (2D detector)1(if not using 2D detector, value is 1 and can be ignored!)
raw_x,raw_y,corrected x,data-bg,sum_components,bg,sum_fit,C_1,C_2,C_3,C_4,C_5,C_6,C_7
467.5,14242.0,467.9195,286.0,-13712,13956.0,243.985,58.7562,29.8852,14.2204,5.59709,68.6051,47.7644,19.1563
467.3,14347.0,467.7195,391.0,-13699.7,13956.0,256.333,60.5853,30.8731,14.7444,5.83886,72.7154,50.8554,20.7207
467.1,14411.0,467.52,455.0,-13686.2,13956.0,269.751,62.5011,31.9107,15.2979,6.09662,77.2053,54.2553,22.4836
466.9,14296.0,467.3195,340.0,-13671.6,13956.0,284.375,64.5093,33.0015,15.8832,6.37179,82.1228,58.0064,24.4796
466.7,14114.0,467.12,158.0,-13655.6,13956.0,300.367,66.6156,34.1492,16.5026,6.66599,87.5237,62.1587,26.7516
466.5,14229.0,466.9195,273.0,-13638.1,13956.0,317.921,68.8268,35.3577,17.159,6.98102,93.4733,66.7711,29.3523
466.3,14187.0,466.7195,231.0,-13618.7,13956.0,337.265,71.1498,36.6314,17.8553,7.31887,100.048,71.9138,32.3476
466.1,14149.0,466.52,193.0,-13597.3,13956.0,358.674,73.5923,37.9752,18.5947,7.6818,107.339,77.671,35.8205
465.9,14111.0,466.3195,155.0,-13573.5,13956.0,382.483,76.1627,39.3942,19.381,8.07235,115.452,84.1438,39.8766
465.7,14146.0,466.12,190.0,-13546.9,13956.0,409.099,78.87,40.8942,20.2182,8.4934,124.516,91.455,44.6521
465.5,14196.0,465.9195,240.86,-13516.1,13955.1,439.028,81.724,42.4814,21.1107,8.94818,134.685,99.7547,50.324
465.3,14162.0,465.7195,209.793,-13479.3,13952.2,472.899,84.7357,44.1626,22.0635,9.44041,146.143,109.228,57.1262
465.1,14234.0,465.52,286.098,-13436.4,13947.9,511.512,87.9168,45.9456,23.0823,9.97429,159.118,120.104,65.3709
464.9,14191.0,465.3195,246.146,-13389,13944.9,555.885,91.2803,47.8387,24.1731,10.5546,173.886,132.672,75.4814
464.7,14437.0,465.12,496.202,-13333.5,13940.8,607.345,94.8402,49.851,25.343,11.187,190.79,147.295,88.0388
464.5,14421.0,464.9195,487.305,-13266.1,13933.7,667.634,98.6123,51.9928,26.5997,11.8777,210.259,164.441,103.851
464.3,14676.0,464.7195,750.445,-13186.5,13925.6,739.074,102.614,54.2754,27.9521,12.6343,232.833,184.715,124.05
464.1,14504.0,464.52,587.747,-13091.5,13916.3,824.779,106.863,56.7115,29.41,13.4652,259.198,208.909,150.222
463.9,14687.0,464.3195,780.031,-12978,13907,928.922,111.382,59.3151,30.9848,14.3805,290.238,238.075,184.546
463.7,14872.0,464.12,977.974,-12837.1,13894,1056.94,116.193,62.1018,32.6892,15.392,327.106,273.628,229.829
463.5,14957.0,463.9195,1078.31,-12663.4,13878.7,1215.31,121.323,65.0893,34.5379,16.5137,371.32,317.499,289.024
463.3,15354.0,463.7195,1493.29,-12451,13860.7,1409.74,126.799,68.2972,36.5474,17.7619,424.911,372.357,363.069
463.1,15513.0,463.52,1675.15,-12198,13837.9,1639.89,132.653,71.7477,38.7371,19.1563,490.629,441.93,445.041
462.9,15616.0,463.3195,1802.16,-11922.9,13813.8,1890.9,138.922,75.4659,41.1289,20.7207,572.252,531.446,510.965
462.7,15814.0,463.12,2027.89,-11652.2,13786.1,2133.91,145.645,79.4802,43.7486,22.4836,675.031,648.189,519.334
462.5,16164.0,462.9195,2410.74,-11397.6,13753.3,2355.64,152.868,83.8226,46.6258,24.4796,806.324,801.933,439.592
462.3,16257.0,462.7195,2539.02,-11117.3,13718,2600.68,160.64,88.5299,49.7953,26.7516,976.44,1004.39,294.133
462.1,16602.0,462.519,2923.33,-10718.7,13678.7,2960.01,169.019,93.6441,53.2979,29.3523,1199.55,1264.91,150.237
461.9,16811.0,462.32,3176.52,-10140.3,13634.5,3494.18,178.069,99.2132,57.1817,32.3476,1493.89,1575.84,57.6373
461.7,17059.0,462.12,3472.58,-9419.53,13586.4,4166.89,187.864,105.293,61.5039,35.8205,1878.65,1881.16,16.589
461.5,17401.0,461.9195,3868.18,-8704.83,13532.8,4827.99,198.488,111.947,66.3325,39.8766,2359.95,2047.79,3.6097
461.3,17469.0,461.7195,3992.3,-8224.23,13476.7,5252.47,210.037,119.25,71.7495,44.6521,2892.76,1913.42,0.599836
461.1,17752.0,461.519,4335.03,-8169.53,13417,5247.44,222.621,127.288,77.8536,50.324,3321.27,1448,0.0767205
460.9,17632.0,461.32,4277.27,-8615.44,13354.7,4739.29,236.367,136.165,84.7654,57.1262,3375.67,849.183,0.00758228
460.7,17491.0,461.12,4197.78,-9504.18,13293.2,3789.04,251.422,145.999,92.6327,65.3709,2857.35,376.269,0.000579316
460.5,16844.0,460.9195,3606.75,-10598.4,13237.3,2638.83,267.957,156.932,101.638,75.4814,1911.86,124.961,3.41665e-05
460.3,16507.0,460.7195,3318.81,-11525.1,13188.2,1663.13,286.172,169.135,112.01,88.0388,976.538,31.2331,1.55174e-06
460.1,15775.0,460.519,2629.36,-12048.1,13145.6,1097.57,306.301,182.81,124.035,103.851,374.643,5.932,5.41328e-08
459.9,15178.0,460.32,2065.54,-12214.8,13112.5,897.647,328.622,198.202,138.08,124.05,107.829,0.864173,1.44704e-09
459.7,14816.0,460.12,1729.55,-12189,13086.4,897.468,353.461,215.609,154.616,150.222,23.463,0.0971354,2.95768e-11
459.5,14727.0,459.9195,1664.84,-12082.8,13062.2,979.317,381.211,235.396,174.257,184.546,3.89893,0.00844153,4.61992e-13
459.3,14641.0,459.7195,1602.62,-11939.9,13038.4,1098.49,412.342,258.012,197.81,229.829,0.498683,0.000566809,5.72356e-15
459.1,14494.0,459.519,1477.91,-11769.2,13016.1,1246.87,447.423,284.018,226.359,289.024,0.0492848,2.93445e-05,0.0
458.9,14611.0,459.32,1617.14,-11568.2,12993.9,1425.71,487.145,314.119,261.369,363.069,0.00376556,1.16841e-06,0.0
458.7,14833.0,459.12,1863.65,-11337.9,12969.4,1631.46,532.358,349.21,304.851,445.041,0.000222082,3.56902e-08,0.0
458.5,14839.0,458.9195,1896.79,-11097.1,12942.2,1845.12,584.111,390.437,359.604,510.965,1.00863e-05,8.34451e-10,0.0
458.3,15077.0,458.7195,2163.54,-10881.6,12913.5,2031.89,643.717,439.293,429.546,519.334,3.51863e-07,1.48998e-11,0.0
458.1,14874.0,458.519,1989.51,-10714.2,12884.5,2170.33,712.827,497.738,520.171,439.592,9.40577e-09,2.02108e-13,0.0
457.9,15183.0,458.32,2328.88,-10559,12854.1,2295.08,793.545,568.382,639.025,294.133,1.92249e-10,0.0,0.0
457.7,15450.0,458.12,2630.85,-10329.8,12819.1,2489.39,888.576,654.753,795.828,150.237,3.00295e-12,0.0,0.0
457.5,15752.0,457.9195,2972.26,-9958.18,12779.7,2821.56,1001.45,761.675,1000.8,57.6373,3.72031e-14,0.0,0.0
457.3,16112.0,457.7195,3376.72,-9428.85,12735.3,3306.43,1136.81,895.838,1257.2,16.589,0.0,0.0,0.0
457.1,16689.0,457.519,4005.26,-8771.61,12683.7,3912.13,1300.88,1066.6,1541.04,3.6097,0.0,0.0,0.0
456.9,17069.0,457.32,4445.77,-8064.14,12623.2,4559.09,1502.08,1287.1,1769.31,0.599836,0.0,0.0,0.0
456.7,17425.0,457.12,4868.8,-7430.35,12556.2,5125.85,1751.97,1575.51,1798.29,0.0767205,0.0,0.0,0.0
456.5,18142.0,456.9195,5662.28,-6935.11,12479.7,5544.61,2066.63,1955.8,1522.17,0.00758228,0.0,0.0,0.0
456.3,19197.0,456.7195,6806.32,-6448.42,12390.7,5942.26,2468.59,2455.18,1018.49,0.000579316,0.0,0.0,0.0
456.1,19488.0,456.519,7196.52,-5691.92,12291.5,6599.57,2989.41,3089.93,520.223,3.41665e-05,0.0,0.0,0.0
455.9,20272.0,456.32,8090.18,-4487.06,12181.8,7694.76,3672.46,3822.72,199.58,1.55174e-06,0.0,0.0,0.0
455.7,20702.0,456.12,8639.09,-2948.96,12062.9,9113.95,4573.6,4482.91,57.4427,5.41328e-08,0.0,0.0,0.0
455.5,21489.0,455.9195,9556.17,-1444.18,11932.8,10488.7,5751.57,4724.58,12.4993,1.44704e-09,0.0,0.0,0.0
455.3,21873.0,455.7195,10079.6,-357.168,11793.4,11436.3,7225.08,4209.12,2.07705,2.95768e-11,0.0,0.0,0.0
455.1,22159.0,455.519,10513.4,209.808,11645.6,11855.4,8856.31,2998.87,0.265659,4.61992e-13,0.0,0.0,0.0
454.9,21779.0,455.32,10282.1,313.676,11496.9,11810.6,10168.2,1642.36,0.0262551,5.72356e-15,0.0,0.0,0.0
454.7,21680.0,455.12,10328.9,-339.084,11351.1,11012,10334.7,677.227,0.00200599,0.0,0.0,0.0,0.0
454.5,20832.0,454.9195,9623.67,-2251.12,11208.3,8957.21,8747.88,209.334,0.000118308,0.0,0.0,0.0,0.0
454.3,18245.0,454.7195,7158.91,-5184.05,11086.1,5902.04,5853.24,48.8026,5.37319e-06,0.0,0.0,0.0,0.0
454.1,14305.0,454.519,3292.71,-8013.91,11012.3,2998.38,2989.71,8.66756,1.87445e-07,0.0,0.0,0.0,0.0
453.9,12387.0,454.32,1406.97,-9831.87,10980,1148.17,1146.98,1.18296,5.01066e-09,0.0,0.0,0.0,0.0
453.7,11715.0,454.12,749.144,-10635.6,10965.9,330.246,330.122,0.124677,1.02415e-10,0.0,0.0,0.0,0.0
453.5,11625.0,453.9195,668.211,-10884.9,10956.8,71.8431,71.8329,0.0101598,1.59974e-12,0.0,0.0,0.0,0.0
453.3,11426.0,453.7195,477.284,-10936.8,10948.7,11.9374,11.9367,0.00063939,1.98189e-14,0.0,0.0,0.0,0.0
453.1,11337.0,453.519,394.385,-10941.1,10942.6,1.52677,1.52674,3.10067e-05,0.0,0.0,0.0,0.0,0.0
452.9,11296.0,453.32,358.826,-10937,10937.2,0.150888,0.150887,1.15569e-06,0.0,0.0,0.0,0.0,0.0
452.7,11206.0,453.12,273.32,-10932.7,10932.7,0.0115284,0.0115284,3.30264e-08,0.0,0.0,0.0,0.0,0.0
452.5,11035.0,452.9195,104.97,-10930,10930,0.000679914,0.000679913,7.22003e-10,0.0,0.0,0.0,0.0,0.0
452.3,11051.0,452.7195,123.207,-10927.8,10927.8,3.08796e-05,3.08796e-05,1.20487e-11,0.0,0.0,0.0,0.0,0.0
452.1,11067.0,452.519,141.231,-10925.8,10925.8,1.07724e-06,1.07724e-06,1.59457e-13,0.0,0.0,0.0,0.0,0.0
451.9,11147.0,452.32,223.52,-10923.5,10923.5,2.87961e-08,2.87961e-08,0.0,0.0,0.0,0.0,0.0,0.0
451.7,10977.0,452.12,55.9471,-10921.1,10921.1,5.88578e-10,5.88578e-10,0.0,0.0,0.0,0.0,0.0,0.0
451.5,11178.0,451.9195,259.796,-10918.2,10918.2,9.19365e-12,9.19365e-12,0.0,0.0,0.0,0.0,0.0,0.0
451.3,11108.0,451.7195,191.491,-10916.5,10916.5,1.13899e-13,1.13899e-13,0.0,0.0,0.0,0.0,0.0,0.0
451.1,10957.0,451.519,43.0,-10914.0,10914.0,0.0,0.0,0.0,0.0,0.0,0.0,0.0,0.0
450.9,10987.0,451.32,73.0,-10914.0,10914.0,0.0,0.0,0.0,0.0,0.0,0.0,0.0,0.0
450.7,11007.0,451.12,93.0,-10914.0,10914.0,0.0,0.0,0.0,0.0,0.0,0.0,0.0,0.0
450.5,11078.0,450.9195,164.0,-10914.0,10914.0,0.0,0.0,0.0,0.0,0.0,0.0,0.0,0.0
450.3,11176.0,450.7195,262.0,-10914.0,10914.0,0.0,0.0,0.0,0.0,0.0,0.0,0.0,0.0