File: XPS/LG4X-result/MX-UT-0.1-2-Ti2p.csv
#No of rows lightened (2D detector)1(if not using 2D detector, value is 1 and can be ignored!)
raw_x,raw_y,corrected x,data-bg,sum_components,bg,sum_fit,C_1,C_2,C_3,C_4,C_5,C_6,C_7
470.0,520.0,470.4017,520.0,119.88,0.0,119.88,22.8508,16.2647,12.0163,23.2077,24.6389,16.6528,4.24917
469.7,538.0,470.102,538.0,126.983,0.0,126.983,23.7611,16.9475,12.5555,24.7411,26.4229,18.0778,4.47732
469.4,287.0,469.8017,287.0,134.787,0.0,134.787,24.727,17.6742,13.1318,26.4313,28.4071,19.6912,4.72434
469.1,490.0,469.5017,490.0,143.392,0.0,143.392,25.7529,18.4487,13.7487,28.3003,30.6223,21.5264,4.99236
468.8,377.0,469.202,377.0,152.917,0.0,152.917,26.8439,19.2752,14.4101,30.3742,33.105,23.6245,5.28384
468.5,380.0,468.9017,380.0,163.505,0.0,163.505,28.0058,20.1585,15.1204,32.6837,35.8993,26.0356,5.60158
468.2,454.0,468.602,454.0,175.327,0.0,175.327,29.2448,21.1038,15.8845,35.2652,39.0581,28.8219,5.94883
467.9,104.0,468.3017,104.0,188.591,0.0,188.591,30.5677,22.1172,16.7079,38.1626,42.6456,32.061,6.32937
467.6,367.0,468.0017,367.0,203.551,0.0,203.551,31.9825,23.2054,17.5971,41.4282,46.7399,35.8506,6.74756
467.3,391.0,467.702,391.0,220.519,0.0,220.519,33.4977,24.3758,18.5591,45.1256,51.4368,40.3157,7.20853
467.0,450.0,467.4017,450.0,239.884,0.0,239.884,35.1232,25.637,19.6022,49.3314,56.8543,45.6179,7.71827
466.7,158.0,467.102,158.0,262.137,0.0,262.137,36.8698,26.9987,20.7356,54.1394,63.1394,51.9706,8.28388
466.4,274.0,466.8017,274.0,287.908,0.0,287.908,38.7499,28.4716,21.9702,59.6649,70.4767,59.6613,8.91373
466.1,193.0,466.5017,193.0,318.019,0.0,318.019,40.7775,30.0684,23.3183,66.0502,79.1007,69.0865,9.61778
465.8,284.0,466.202,284.0,353.57,0.0,353.57,42.9685,31.8032,24.7943,73.4731,89.3138,80.8091,10.408
465.5,240.86,465.9017,240.86,396.071,0.0,396.071,45.3406,33.6926,26.4147,82.1577,101.513,95.6538,11.2986
465.2,354.809,465.602,354.809,447.667,0.0,447.667,47.9147,35.7552,28.1991,92.3901,116.227,114.874,12.307
464.9,246.146,465.3017,246.146,511.527,0.0,511.527,50.7141,38.013,30.1701,104.541,134.182,140.454,13.454
464.6,502.77,465.0017,502.77,592.554,0.0,592.554,53.766,40.4914,32.3546,119.099,156.396,175.681,14.7653
464.3,750.445,464.702,750.445,698.731,0.0,698.731,57.1017,43.22,34.7842,136.724,184.347,226.281,16.2722
464.0,616.046,464.4017,616.046,843.756,0.0,843.756,60.7573,46.2337,37.4966,158.323,220.252,302.68,18.0137
463.7,977.974,464.102,977.974,1051.77,0.0,1051.77,64.7752,49.5735,40.5367,185.188,267.567,424.091,20.0381
463.4,1231.56,463.8017,1231.56,1361.18,0.0,1361.18,69.2047,53.2882,43.9583,219.207,331.937,621.179,22.4066
463.1,1675.15,463.5017,1675.15,1798.19,0.0,1798.19,74.104,57.436,47.8262,263.253,423.025,907.348,25.1973
462.8,1968.62,463.202,1968.62,2260.01,0.0,2260.01,79.5418,62.0867,52.2191,321.873,558.189,1157.59,28.5112
462.5,2410.74,462.9017,2410.74,2517.05,0.0,2517.05,85.6,67.3249,57.2326,402.602,769.546,1102.26,32.4817
462.2,2772.99,462.602,2772.99,2656.43,0.0,2656.43,92.3765,73.2538,62.9838,518.561,1112.78,759.183,37.2883
461.9,3176.52,462.302,3176.52,3060.04,0.0,3060.04,99.9894,80.0001,69.6175,693.641,1643.68,429.938,43.1791
461.6,3833.68,462.002,3833.68,3766.07,0.0,3766.07,108.582,87.7207,77.3136,971.874,2236.39,233.678,50.5057
461.3,3992.3,461.702,3992.3,4292.55,0.0,4292.55,118.329,96.6121,86.2979,1423.54,2376.81,131.181,59.7836
461.0,4409.26,461.4017,4409.26,4370.41,0.0,4370.41,129.446,106.923,96.858,2079.34,1809.15,76.9036,71.7962
460.7,4197.78,461.102,4197.78,4230.47,0.0,4230.47,142.204,118.97,109.364,2652.81,1072.64,46.7031,87.7835
460.4,3406.79,460.802,3406.79,3662.88,0.0,3662.88,156.939,133.163,124.301,2526.02,583.568,29.0893,109.801
460.1,2629.36,460.502,2629.36,2689.15,0.0,2689.15,174.08,150.039,142.318,1739.79,323.059,18.4297,141.426
459.8,1745.14,460.202,1745.14,1901.81,0.0,1901.81,194.178,170.304,164.304,985.274,186.773,11.8014,189.175
459.5,1664.84,459.9017,1664.84,1524.76,0.0,1524.76,217.948,194.909,191.506,535.512,112.23,7.60089,265.057
459.2,1580.99,459.602,1580.99,1460.35,0.0,1460.35,246.33,225.136,225.732,300.622,69.3865,4.9055,388.237
458.9,1617.14,459.302,1617.14,1603.25,0.0,1603.25,280.571,262.748,269.696,176.237,43.7461,3.16309,567.093
458.6,1920.16,459.002,1920.16,1820.67,0.0,1820.67,322.352,310.197,327.633,107.028,27.9301,2.03297,723.494
458.3,2163.54,458.702,2163.54,1926.21,0.0,1926.21,373.96,370.957,406.454,66.6631,17.9626,1.29993,688.915
458.0,2093.08,458.4017,2093.08,1935.75,0.0,1935.75,438.551,450.072,517.989,42.2347,11.5891,0.825661,474.489
457.7,2630.85,458.102,2630.85,2062.9,0.0,2062.9,520.551,555.096,683.497,27.0448,7.47707,0.520259,268.711
457.4,3050.77,457.802,3050.77,2435.03,0.0,2435.03,626.291,697.833,942.301,17.4187,4.81194,0.324864,146.049
457.1,4005.26,457.502,4005.26,3121.88,0.0,3121.88,765.075,897.703,1362.59,11.2418,3.08272,0.20084,81.9878
456.8,4728.53,457.202,4728.53,4209.73,0.0,4209.73,951.079,1188.59,2012.67,7.24875,1.96269,0.122836,48.0647
456.5,5662.28,456.9017,5662.28,5613.45,0.0,5613.45,1206.93,1632.92,2738.44,4.65889,1.24017,0.0742732,29.1895
456.2,6888.22,456.602,6888.22,6850.31,0.0,6850.31,1570.8,2347.15,2910.38,2.979,0.776824,0.0443726,18.1808
455.9,8090.18,456.302,8090.18,7846.96,0.0,7846.96,2110.97,3506.78,2215.28,1.89214,0.4819,0.0261788,11.5186
455.6,9115.49,456.002,9115.49,9298.98,0.0,9298.98,2955.22,5021.45,1313.43,1.19226,0.295818,0.0152455,7.37586
455.3,10079.6,455.702,10079.6,10514.4,0.0,10514.4,4332.67,5461.51,714.573,0.744481,0.179563,0.00876019,4.75056
455.0,10425.1,455.4017,10425.1,10599.9,0.0,10599.9,6471.63,3729,395.583,0.460259,0.107713,0.00496494,3.06594
454.7,10328.9,455.102,10328.9,10604.2,0.0,10604.2,8523.6,1849.54,228.702,0.281499,0.0638176,0.00277462,1.97693
454.4,8725.19,454.802,8725.19,8606.51,0.0,8606.51,7617.5,850.105,137.424,0.170209,0.0373279,0.00152848,1.27061
454.1,3292.71,454.502,3292.71,4861.62,0.0,4861.62,4377.35,398.368,84.9631,0.101687,0.0215459,0.000829788,0.812455
453.8,907.23,454.202,907.23,2300.99,0.0,2300.99,2055.12,191.708,53.5666,0.0599931,0.0122679,0.000443842,0.516038
453.5,668.211,453.9017,668.211,1076.77,0.0,1076.77,948.625,93.5771,34.2002,0.0349375,0.0068883,0.000233858,0.325162
453.2,418.482,453.602,418.482,518.135,0.0,518.135,450.172,45.7409,21.995,0.0200754,0.00381293,0.000121353,0.20304
452.9,358.826,453.302,358.826,254.839,0.0,254.839,218.347,22.1626,14.1907,0.011378,0.00208015,6.20091e-05,0.125525
452.6,181.946,453.002,181.946,126.599,0.0,126.599,106.797,10.5623,9.15559,0.00635851,0.00111819,3.11954e-05,0.0767725
452.3,123.207,452.702,123.207,62.9262,0.0,62.9262,52.0612,4.92229,5.89217,0.00350276,0.000592144,1.54488e-05,0.0464208
452.0,138.229,452.4017,138.229,31.1033,0.0,31.1033,25.0657,2.23298,3.77475,0.0019016,0.000308847,7.53029e-06,0.0277329
451.7,55.9471,452.102,55.9471,15.2414,0.0,15.2414,11.8379,0.982593,2.4033,0.00101714,0.000158631,3.6123e-06,0.0163617
451.4,11.7655,451.802,11.7655,7.4024,0.0,7.4024,5.45545,0.41823,1.51857,0.000535924,8.02208e-05,1.70515e-06,0.00952841
451.1,43.0,451.502,43.0,3.57215,0.0,3.57215,2.44334,0.1718,0.951213,0.000278102,3.9937e-05,7.91956e-07,0.00547512
450.8,119.0,451.202,119.0,1.72143,0.0,1.72143,1.0601,0.0679815,0.590081,0.000142104,1.95701e-05,3.61874e-07,0.00310309
450.5,164.0,450.9017,164.0,0.834351,0.0,0.834351,0.444437,0.0258733,0.362226,7.14896e-05,9.43812e-06,1.62664e-07,0.00173414
450.2,181.0,450.602,181.0,0.409995,0.0,0.409995,0.179668,0.00945902,0.219873,3.54036e-05,4.4792e-06,7.19231e-08,0.000955297
450.0,118.0,450.4017,118.0,0.25817,0.0,0.25817,0.0961819,0.00472683,0.1566,2.19665e-05,2.70091e-06,4.1361e-08,0.00063678