File: XPS/LG4X-result/MX-UT-0.5-O1s.csv
#No of rows lightened (2D detector)1(if not using 2D detector, value is 1 and can be ignored!)
raw_x,raw_y,corrected x,data-bg,sum_components,bg,sum_fit,bg_shirley_,C-O,TiO2
540.0,223.0,540.6287,59.6997,6.89259e-06,163.3,163.3,163.3,6.89259e-06,2.51863e-180
539.8,150.0,540.429,-13.3003,1.74359e-05,163.3,163.3,163.3,1.74359e-05,1.33653e-173
539.6,244.0,540.2287,80.6997,4.31295e-05,163.3,163.3,163.3,4.31295e-05,5.30952e-167
539.4,313.0,540.0287,149.7,0.000104321,163.3,163.3,163.3,0.000104321,1.57904e-160
539.2,210.0,539.8287,46.6997,0.000246741,163.3,163.301,163.3,0.000246741,3.51552e-154
539.0,0.0,539.6287,-163.3,0.000570663,163.3,163.301,163.3,0.000570663,5.85932e-148
538.8,277.42,539.429,114.12,0.00129058,163.3,163.302,163.3,0.00129058,7.3108e-142
538.6,142.998,539.2287,-20.3023,0.00285405,163.3,163.303,163.3,0.00285405,6.8288e-136
538.4,123.405,539.0287,-39.8953,0.00617173,163.3,163.306,163.3,0.00617173,4.77511e-130
538.2,293.89,538.8287,130.59,0.0130503,163.3,163.313,163.3,0.0130503,2.49967e-124
538.0,123.592,538.6287,-39.7078,0.0269838,163.3,163.327,163.3,0.0269838,9.79589e-119
537.8,127.018,538.429,-36.2821,0.0545576,163.3,163.355,163.3,0.0545576,2.87386e-113
537.6,235.545,538.2287,72.2451,0.107864,163.3,163.408,163.3,0.107864,6.31171e-108
537.4,157.277,538.0287,-6.02321,0.208529,163.3,163.509,163.3,0.208529,1.03774e-102
537.2,205.917,537.8287,42.617,0.394208,163.3,163.694,163.3,0.394208,1.2773e-97
537.0,36.2841,537.6287,-127.016,0.728707,163.3,164.029,163.3,0.728707,1.17694e-92
536.8,105.444,537.429,-57.8559,1.3172,163.3,164.617,163.3,1.3172,8.11857e-88
536.6,282.053,537.2287,118.753,2.32818,163.3,165.628,163.3,2.32818,4.19241e-83
536.4,49.4916,537.0287,-113.809,4.02394,163.3,167.324,163.3,4.02394,1.62072e-78
536.2,64.6302,536.8287,-98.6701,6.80074,163.3,170.101,163.3,6.80074,4.69045e-74
536.0,295.134,536.6287,131.833,11.239,163.3,174.539,163.3,11.239,1.0162e-69
535.8,131.804,536.429,-31.4964,18.1623,163.3,181.463,163.3,18.1623,1.64819e-65
535.6,215.483,536.2287,52.1832,28.7001,163.3,192,163.3,28.7001,2.00122e-61
535.4,119.024,536.0287,-44.276,44.3469,163.3,207.647,163.3,44.3469,1.81904e-57
535.2,379.715,535.8287,216.415,67.0059,163.3,230.306,163.3,67.0059,1.2378e-53
535.0,390.699,535.6287,227.399,98.9992,163.3,262.3,163.3,98.9992,6.30551e-50
534.8,169.514,535.429,6.21387,143.027,163.3,306.328,163.3,143.027,2.40464e-46
534.6,244.064,535.2287,80.7635,202.058,163.3,365.358,163.3,202.058,6.865e-43
534.4,222.928,535.0287,59.6274,279.127,163.3,442.427,163.3,279.127,1.46721e-39
534.2,450.083,534.8287,286.782,377.048,163.3,540.349,163.3,377.048,2.34748e-36
534.0,634.705,534.6287,471.405,498.036,163.3,661.336,163.3,498.036,2.81173e-33
533.8,745.995,534.429,582.695,643.271,163.3,806.571,163.3,643.271,2.5212e-30
533.6,902.754,534.2287,739.454,812.448,163.3,975.749,163.3,812.448,1.69239e-27
533.4,1161.92,534.0287,998.618,1003.38,163.3,1166.68,163.3,1003.38,8.50459e-25
533.2,1519.01,533.8287,1355.71,1211.73,163.3,1375.03,163.3,1211.73,3.19939e-22
533.0,1578.23,533.6287,1414.93,1430.92,163.3,1594.22,163.3,1430.92,9.01036e-20
532.8,2012.89,533.429,1849.59,1652.32,163.3,1815.62,163.3,1652.32,1.89967e-17
532.6,2211.35,533.2287,2048.05,1865.7,163.3,2029,163.3,1865.7,2.99829e-15
532.4,2181.56,533.0287,2018.26,2059.96,163.3,2223.26,163.3,2059.96,3.54266e-13
532.2,2452.98,532.8287,2289.68,2224.04,163.3,2387.34,163.3,2224.04,3.13362e-11
532.0,2228.59,532.6287,2065.29,2348,163.3,2511.3,163.3,2348,2.07503e-09
531.8,2664.54,532.429,2501.24,2423.94,163.3,2587.24,163.3,2423.94,1.02864e-07
531.6,2676.76,532.2287,2513.46,2446.89,163.3,2610.19,163.3,2446.89,3.81734e-06
531.4,2496.09,532.0287,2332.79,2415.33,163.3,2578.63,163.3,2415.33,0.000106052
531.2,2602.37,531.8287,2439.07,2331.35,163.3,2494.65,163.3,2331.34,0.00220567
531.0,2189.1,531.6287,2025.8,2200.46,163.3,2363.76,163.3,2200.42,0.0343416
530.8,2032.14,531.429,1868.84,2031.24,163.3,2194.54,163.3,2030.84,0.400277
530.6,1863.26,531.2287,1699.96,1836.28,163.3,1999.58,163.3,1832.79,3.49271
530.4,1819.19,531.0287,1655.89,1640.22,163.3,1803.52,163.3,1617.41,22.8152
530.2,1722.77,530.8287,1559.47,1507.28,163.3,1670.58,163.3,1395.71,111.57
530.0,2113.86,530.6287,1950.56,1586.16,163.3,1749.46,163.3,1177.72,408.442
529.8,2364.92,530.429,2201.62,2091.12,163.3,2254.42,163.3,971.75,1119.37
529.6,3129.59,530.2287,2966.29,3080.6,163.3,3243.9,163.3,784.039,2296.56
529.4,4117.95,530.0287,3954.65,4145.88,163.3,4309.18,163.3,618.572,3527.31
529.2,4830.72,529.8287,4667.42,4532.94,163.3,4696.24,163.3,477.212,4055.72
529.0,4273.44,529.6287,4110.14,3851.04,163.3,4014.34,163.3,359.999,3491.04
528.8,2508.97,529.429,2345.67,2515.14,163.3,2678.44,163.3,265.559,2249.58
528.6,1458.1,529.2287,1294.8,1276.75,163.3,1440.05,163.3,191.553,1085.2
528.4,647.458,529.0287,484.158,527.01,163.3,690.31,163.3,135.11,391.9
528.2,479.287,528.8287,315.986,199.137,163.3,362.437,163.3,93.1865,105.951
528.0,245.183,528.6287,81.8825,84.291,163.3,247.591,163.3,62.8476,21.4434
527.8,293.024,528.429,129.723,44.696,163.3,207.996,163.3,41.447,3.24894
527.6,171.748,528.2287,8.44791,27.0965,163.3,190.397,163.3,26.728,0.368512
527.4,258.422,528.0287,95.1217,16.8856,163.3,180.186,163.3,16.8543,0.0312912
527.2,204.385,527.8287,41.0853,10.3945,163.3,173.695,163.3,10.3925,0.00198909
527.0,161.806,527.6287,-1.49443,6.26627,163.3,169.566,163.3,6.26617,9.46554e-05
526.8,0.0,527.429,-163.3,3.69447,163.3,166.995,163.3,3.69447,3.37208e-06
526.6,190.0,527.2287,26.6998,2.12996,163.3,165.43,163.3,2.12996,8.99312e-08
526.4,205.0,527.0287,41.6998,1.20077,163.3,164.501,163.3,1.20077,1.79549e-09
526.2,29.0,526.8287,-134.3,0.661936,163.3,163.962,163.3,0.661936,2.6836e-11
526.0,98.0,526.6287,-65.3002,0.356814,163.3,163.657,163.3,0.356814,3.0027e-13
525.8,181.0,526.429,17.6998,0.188078,163.3,163.488,163.3,0.188078,2.51517e-15
525.6,169.0,526.2287,5.69979,0.0969397,163.3,163.397,163.3,0.0969397,1.57718e-17
525.4,336.0,526.0287,172.7,0.0488579,163.3,163.349,163.3,0.0488579,7.40387e-20
525.2,319.0,525.8287,155.7,0.0240789,163.3,163.324,163.3,0.0240789,2.60193e-22
525.0,193.0,525.6287,29.6998,0.011604,163.3,163.312,163.3,0.011604,6.8453e-25