File: XPS/LG4X-result/MX-UT-0.5-3-C1s.csv
#No of rows lightened (2D detector)1(if not using 2D detector, value is 1 and can be ignored!)
raw_x,raw_y,corrected x,data-bg,sum_components,bg,sum_fit,C=C,pi-pi,pi-pi2,C-C,C-O,C_6,TiC
294.7,745.0,295.353,12.0,-684.579,733.0,48.4212,17.29,23.5611,0.0,0.239492,7.04886,0.0,0.28177
294.5,747.0,295.1528,14.0216,-681.273,732.978,51.7051,17.9454,25.8515,0.0,0.249154,7.36868,0.0,0.290427
294.3,787.0,294.953,54.2467,-677.351,732.753,55.402,18.6387,28.4937,0.0,0.259414,7.71067,0.0,0.299489
294.1,845.0,294.753,112.714,-672.694,732.286,59.592,19.373,31.5628,0.0,0.270321,8.07691,0.0,0.308982
293.9,828.0,294.553,96.2287,-667.395,731.771,64.3764,20.1516,35.1541,0.0,0.281932,8.46975,0.0,0.318933
293.7,783.0,294.353,51.7407,-661.376,731.259,69.8829,20.9781,39.3893,0.0,0.294309,8.8918,0.0,0.329374
293.5,782.0,294.1528,51.086,-654.64,730.914,76.2743,21.8565,44.4239,0.0,0.307521,9.34601,0.0,0.340335
293.3,805.0,293.953,74.4397,-646.803,730.56,83.7569,22.7913,50.4563,0.0,0.321644,9.83574,0.0,0.351853
293.1,803.0,293.753,72.9451,-637.465,730.055,92.5899,23.7873,57.7371,0.0,0.336765,10.3647,0.0,0.363966
292.9,823.0,293.553,93.4289,-626.477,729.571,103.094,24.8501,66.5767,0.0,0.35298,10.9373,0.0,0.376715
292.7,817.0,293.353,87.8695,-613.478,729.13,115.652,25.9857,77.3475,0.0,0.370397,11.5583,0.0,0.390145
292.5,829.0,293.1528,100.492,-597.807,728.508,130.701,27.201,90.4734,0.0,0.389139,12.2334,0.0,0.404307
292.3,881.0,292.953,153.269,-579.032,727.731,148.699,28.5036,106.398,0.0,0.409343,12.9688,0.0,0.419255
292.1,859.0,292.753,132.279,-556.657,726.721,170.064,29.9021,125.523,0.0,0.431167,13.7721,0.0,0.435047
291.9,940.0,292.553,214.414,-530.513,725.586,195.073,31.4061,148.109,0.0,0.454787,14.6517,0.0,0.451748
291.7,918.0,292.353,193.619,-500.646,724.381,223.735,33.0264,174.141,0.0,0.480409,15.6175,0.0,0.469429
291.5,931.0,292.1528,207.96,-467.402,723.04,255.637,34.7755,203.184,0.0,0.508265,16.6811,0.0,0.48817
291.3,1036.0,291.953,314.605,-431.57,721.395,289.824,36.6673,234.255,0.0,0.538623,17.8559,0.0,0.508055
291.1,1082.0,291.753,362.743,-394.516,719.257,324.741,38.7179,265.765,0.0,0.571793,19.1578,0.0,0.529181
290.9,1146.0,291.553,429.067,-358.632,716.933,358.301,40.9453,295.591,0.0,0.608135,20.6055,0.0,0.551652
290.7,1111.0,291.353,396.394,-326.504,714.606,388.102,43.3707,321.286,0.0,0.648068,22.2215,0.0,0.575586
290.5,1132.0,291.1528,419.924,-300.302,712.076,411.774,46.0181,340.431,0.0,0.692083,24.0323,0.0,0.601111
290.3,1121.0,290.953,411.571,-282.029,709.429,427.4,48.9156,351.045,0.0,0.740759,26.0701,0.0,0.628373
290.1,1172.0,290.753,465.284,-272.825,706.716,433.891,52.0956,351.969,0.0,0.79478,28.3736,0.0,0.657532
289.9,1103.0,290.553,398.986,-272.782,704.014,431.232,55.5962,343.101,0.0,0.854964,30.9903,0.0,0.68877
289.7,1103.0,290.353,401.5,-281,701.5,420.5,59.4618,325.416,0.0,0.922288,33.9782,0.0,0.722287
289.5,1070.0,290.1528,370.926,-295.399,699.074,403.675,63.7452,300.764,0.0,0.997936,37.4091,0.0,0.758311
289.3,1040.0,289.953,343.047,-313.673,696.953,383.279,68.5086,271.518,0.0,1.08335,41.3726,0.0,0.797099
289.1,1053.0,289.753,358.156,-332.871,694.844,361.974,73.8267,240.147,0.0,1.18029,45.9812,0.0,0.838941
288.9,1086.0,289.553,393.41,-350.393,692.59,342.198,79.7891,208.856,0.0,1.29096,51.3773,0.0,0.884167
288.7,980.0,289.353,289.55,-364.508,690.45,325.942,86.5041,179.343,0.0,1.41809,57.7435,0.0,0.93315
288.5,1017.0,289.1528,328.442,-373.885,688.558,314.673,94.1041,152.702,0.0,1.56514,65.3151,0.0,0.986319
288.3,1018.0,288.953,331.466,-377.14,686.534,309.394,102.752,129.463,0.0,1.73657,74.3982,0.0,1.04417
288.1,1016.0,288.753,331.406,-373.798,684.594,310.796,112.648,109.707,0.0,1.93814,85.395,0.0,1.10725
287.9,1046.0,288.553,363.49,-363.058,682.51,319.452,124.047,93.214,0.0,2.17744,98.8365,0.0,1.17624
287.7,1060.0,288.353,379.751,-344.236,680.249,336.013,137.269,79.6002,0.0,2.46469,115.427,0.0,1.25187
287.5,1121.0,288.1528,443.271,-316.335,677.729,361.394,152.722,68.4241,0.0,2.81386,136.099,0.0,1.33505
287.3,1087.0,287.953,411.752,-278.309,675.248,396.939,170.938,59.2548,0.0,3.24455,162.075,0.0,1.42679
287.1,1110.0,287.753,437.386,-228.072,672.614,444.542,192.615,51.7092,0.0,3.78501,194.904,0.0,1.52833
286.9,1159.0,287.553,489.372,-162.946,669.628,506.682,218.68,45.465,0.0,4.47735,236.418,0.0,1.6411
286.7,1241.0,287.353,574.665,-80.1151,666.335,586.22,250.387,40.2611,0.0,5.38714,288.417,0.0,1.76684
286.5,1293.0,287.1528,630.407,23.029,662.593,685.622,289.451,35.8899,0.0,6.62243,351.751,0.0,1.90759
286.3,1497.0,286.953,838.952,147.116,658.048,805.164,338.26,32.1888,0.0,8.37743,424.272,0.0,2.06586
286.1,1597.0,286.753,944.294,287.487,652.706,940.194,400.194,29.0304,0.0,11.0539,497.671,0.0,2.24468
285.9,1667.0,286.553,1020.32,433.431,646.678,1080.11,480.152,26.3149,0.0,15.6614,555.534,0.0,2.44775
285.7,1773.0,286.353,1133.07,575.606,639.935,1215.54,585.437,23.9639,0.0,25.1276,578.333,0.0,2.67968
285.5,1907.0,286.1528,1274.85,724.408,632.153,1356.56,727.38,21.9153,0.0,47.6728,556.646,0.0,2.9462
285.3,2190.0,285.953,1566.74,925.847,623.264,1549.11,924.552,20.1193,0.0,101.727,499.459,0.0,3.25455
285.1,2492.0,285.753,1879.33,1259.25,612.67,1871.92,1209.69,18.5362,0.0,213.856,426.223,0.0,3.61396
284.9,2917.0,285.553,2317.17,1815.19,599.827,2415.02,1646.34,17.1335,0.0,393.973,353.54,0.0,4.03635
284.7,3788.0,285.353,3205.19,2697.26,582.811,3280.08,2374.64,15.8848,0.0,595.094,289.921,0.0,4.53736
284.5,5145.0,285.1528,4585.55,4171.59,559.449,4731.03,3758.8,14.7683,0.0,714.695,237.63,0.0,5.13777
284.3,8704.0,284.953,8182.54,7256.39,521.458,7777.85,6887.15,13.766,0.0,675.206,195.865,0.0,5.8657
284.1,15457.0,284.753,15005.6,14096.9,451.446,14548.3,13862.5,12.8626,0.0,503.379,162.834,0.0,6.76001
283.9,21076.0,284.553,20736.7,20217.9,339.258,20557.2,20098.8,12.0457,0.0,301.765,136.702,0.0,7.87552
283.7,14300.0,284.353,14071.5,13924.1,228.471,14152.6,13863.9,11.3045,0.0,152.184,115.908,0.0,9.29165
283.5,5126.0,284.1528,4953.9,5264.6,172.095,5436.69,5245.07,10.6298,0.0,70.6419,99.2245,0.0,11.1269
283.3,2020.0,283.953,1867.4,1796.71,152.596,1949.31,1805.5,10.014,0.0,34.5182,85.7109,0.0,13.5645
283.1,1070.0,283.753,925.554,689.114,144.446,833.56,712.837,9.4503,0.0,19.7148,74.6579,0.0,16.8996
282.9,711.0,283.553,571.109,280.523,139.891,420.414,311.186,8.93305,0.0,13.1318,65.5306,0.0,21.6331
282.7,495.0,283.353,357.957,110.233,137.043,247.276,142.591,8.45726,0.0,9.63445,57.924,0.0,28.6696
282.5,400.0,283.1528,264.843,38.1359,135.157,173.293,66.4991,8.01858,0.0,7.46615,51.5297,0.0,39.7796
282.3,363.0,282.953,229.395,15.9021,133.605,149.507,30.9832,7.61326,0.0,5.98932,46.1108,0.0,58.8108
282.1,358.0,282.753,225.768,31.0309,132.232,163.263,14.2498,7.23799,0.0,4.92509,41.4837,0.0,95.3661
281.9,396.0,282.553,265.262,101.914,130.738,232.651,6.41639,6.88986,0.0,4.12818,37.505,0.0,177.712
281.7,550.0,282.353,421.271,306.7,128.729,435.429,2.81189,6.56631,0.0,3.51397,34.0615,0.0,388.475
281.5,899.0,282.1528,773.842,685.064,125.158,810.222,1.19403,6.26508,0.0,3.02957,31.063,0.0,768.67
281.3,1020.0,281.953,900.116,741.774,119.884,861.658,0.48963,5.98415,0.0,2.64025,28.4375,0.0,824.106
281.1,645.0,281.753,529.715,368.789,115.285,484.074,0.193378,5.72174,0.0,2.32235,26.1264,0.0,449.71
280.9,302.0,281.553,188.847,121.271,113.153,234.424,0.0734011,5.47625,0.0,2.05921,24.0823,0.0,202.733
280.7,194.0,281.353,81.6974,22.5785,112.303,134.881,0.0267302,5.24626,0.0,1.83881,22.266,0.0,105.503
280.5,149.0,281.1528,37.1259,-20.8424,111.874,91.0317,0.00932573,5.03048,0.0,1.65229,20.6453,0.0,63.6942
280.3,161.0,280.953,49.395,-43.6112,111.605,67.9938,0.00311332,4.82777,0.0,1.49299,19.1935,0.0,42.4765
280.1,140.0,280.753,28.729,-57.0794,111.271,54.1916,0.000993543,4.63709,0.0,1.35583,17.8881,0.0,30.3096
279.9,143.0,280.553,31.9078,-65.9845,111.092,45.1078,0.000302827,4.45751,0.0,1.23686,16.7102,0.0,22.7029
279.7,166.0,280.353,55.1986,-72.1008,110.801,38.7006,8.80899e-05,4.28818,0.0,1.13297,15.6439,0.0,17.6355
279.5,129.0,280.1528,18.405,-76.6572,110.595,33.9378,2.444e-05,4.12833,0.0,1.04171,14.6757,0.0,14.092
279.3,153.0,279.953,42.6079,-80.1419,110.392,30.2502,6.46365e-06,3.97726,0.0,0.961108,13.794,0.0,11.5178
279.1,140.0,279.753,29.8014,-82.8966,110.199,27.3021,1.6287e-06,3.83435,0.0,0.889551,12.9888,0.0,9.58932
278.9,117.0,279.553,6.89427,-85.2219,110.106,24.8838,3.90844e-07,3.69902,0.0,0.825731,12.2517,0.0,8.10739
278.7,126.0,279.353,16.0,-87.1414,110.0,22.8586,8.92889e-08,3.57074,0.0,0.768568,11.5752,0.0,6.94412
278.5,126.0,279.1528,16.0,-88.8667,110.0,21.1333,1.94122e-08,3.44902,0.0,0.717163,10.9528,0.0,6.01431
278.3,139.0,278.953,29.0,-90.3573,110.0,19.6427,4.01514e-09,3.33343,0.0,0.670765,10.3791,0.0,5.25945
278.1,144.0,278.753,34.0,-91.6605,110.0,18.3395,7.89872e-10,3.22356,0.0,0.628743,9.84898,0.0,4.63825
277.9,114.0,278.553,4.0,-92.8112,110.0,17.1888,1.47753e-10,3.11905,0.0,0.590561,9.35828,0.0,4.12092
277.7,126.0,278.353,16.0,-93.836,110.0,16.164,2.62738e-11,3.01954,0.0,0.555765,8.90318,0.0,3.68554
277.5,115.0,278.1528,5.0,-94.7553,110.0,15.2447,4.43986e-12,2.92472,0.0,0.523963,8.48034,0.0,3.31568
277.3,137.0,277.953,27.0,-95.5853,110.0,14.4147,7.12154e-13,2.8343,0.0,0.494822,8.08678,0.0,2.99882
277.1,117.0,277.753,7.0,-96.3388,110.0,13.6612,1.09275e-13,2.74802,0.0,0.468052,7.71987,0.0,2.72529