File: XPS/LG4X-result/MX-UT-0.1-1-O1s.csv
#No of rows lightened (2D detector)1(if not using 2D detector, value is 1 and can be ignored!)
raw_x,raw_y,corrected x,data-bg,sum_components,bg,sum_fit,bg_shirley_,C-O,TiO2,C-Ti-(OH)x
537.5,260.943,537.9255,260.942,57.8385,0.000469149,57.8389,0.000469149,0.000999686,9.83092,48.0065
537.3,218.578,537.7255,218.577,61.3748,0.000468295,61.3753,0.000468295,0.00295905,10.3225,51.0493
537.1,108.169,537.526,108.168,65.2476,0.000467427,65.248,0.000467427,0.00838996,10.852,54.3872
536.9,29.3366,537.3255,29.3361,69.505,0.000467132,69.5055,0.000467132,0.0227869,11.4231,58.0591
536.7,186.678,537.126,186.678,74.2103,0.000466857,74.2108,0.000466857,0.059283,12.0406,62.1105
536.5,108.365,536.9255,108.365,79.4518,0.000465899,79.4522,0.000465899,0.147738,12.7094,66.5946
536.3,29.5548,536.7255,29.5543,85.3625,0.000465576,85.363,0.000465576,0.352674,13.4356,71.5743
536.1,134.79,536.526,134.789,92.1561,0.000465384,92.1565,0.000465384,0.806442,14.2257,77.124
535.9,205.534,536.3255,205.534,100.186,0.000464505,100.187,0.000464505,1.76641,15.0875,83.3323
535.7,251.11,536.126,251.11,110.042,0.000463816,110.042,0.000463816,3.70619,16.0299,90.3055
535.5,170.792,535.9255,170.792,122.683,0.000462862,122.684,0.000462862,7.44874,17.0635,98.1713
535.3,182.265,535.7255,182.265,139.625,0.00046227,139.626,0.00046227,14.3402,18.2001,107.085
535.1,230.203,535.526,230.202,163.134,0.000461122,163.135,0.000461122,26.4453,19.454,117.235
534.9,229.195,535.3255,229.195,196.411,0.000459853,196.411,0.000459853,46.7152,20.842,128.853
534.7,136.759,535.126,136.759,243.658,0.000459038,243.659,0.000459038,79.0473,22.3836,142.227
534.5,306.504,534.9255,306.504,309.941,0.00045826,309.942,0.00045826,128.125,24.1026,157.714
534.3,385.414,534.7255,385.414,400.716,0.000457178,400.717,0.000457178,198.93,26.027,175.76
534.1,471.82,534.526,471.82,520.98,0.000455471,520.98,0.000455471,295.858,28.191,196.93
533.9,740.806,534.3255,740.805,674.068,0.000453209,674.068,0.000453209,421.489,30.6359,221.943
533.7,900.312,534.126,900.311,860.311,0.000450171,860.311,0.000450171,575.184,33.4123,251.714
533.5,945.232,533.9255,945.232,1075.88,0.000446486,1075.88,0.000446486,751.877,36.5828,287.42
533.3,1215.82,533.7255,1215.82,1312.26,0.00044218,1312.26,0.00044218,941.465,40.2256,330.571
533.1,1714.59,533.526,1714.59,1556.77,0.000436592,1556.77,0.000436592,1129.23,44.439,383.101
532.9,1743.89,533.3255,1743.89,1794.21,0.000429863,1794.21,0.000429863,1297.4,49.348,447.456
532.7,1923.04,533.126,1923.04,2009.63,0.000422186,2009.63,0.000422186,1427.87,55.1142,526.645
532.5,2311.96,532.9255,2311.96,2191.4,0.000413737,2191.4,0.000413737,1505.29,61.9482,624.166
532.3,2320.16,532.7255,2320.16,2333.81,0.000404555,2333.81,0.000404555,1520.09,70.1295,743.585
532.1,2419.88,532.526,2419.88,2437.83,0.000394801,2437.83,0.000394801,1470.41,80.0345,887.386
531.9,2517.39,532.3255,2517.39,2509.11,0.000385301,2509.11,0.000385301,1362.47,92.18,1054.47
531.7,2470.64,532.126,2470.64,2552.43,0.000374712,2552.43,0.000374712,1209.29,107.29,1235.85
531.5,2617,531.9255,2617,2564.31,0.000364193,2564.31,0.000364193,1028.15,126.403,1409.76
531.3,2631.19,531.7255,2631.19,2529.46,0.000353744,2529.46,0.000353744,837.331,151.051,1541.07
531.1,2435.4,531.526,2435.4,2429.58,0.00034305,2429.58,0.00034305,653.218,183.559,1592.8
530.9,2287.68,531.3255,2287.68,2263.41,0.000333599,2263.41,0.000333599,488.132,227.591,1547.69
530.7,1881.27,531.126,1881.27,2059.44,0.000324772,2059.44,0.000324772,349.409,289.159,1420.87
530.5,1860.24,530.9255,1860.24,1866.88,0.00031712,1866.88,0.00031712,239.58,378.612,1248.69
530.3,1721.02,530.7255,1721.02,1739.08,0.000309601,1739.08,0.000309601,157.357,514.773,1066.95
530.1,1885.66,530.526,1885.66,1731.42,0.000302563,1731.42,0.000302563,99.0007,733.979,898.443
529.9,2177.29,530.3255,2177.29,1922.78,0.00029439,1922.79,0.00029439,59.6636,1110.22,752.902
529.7,2666.95,530.126,2666.95,2460.1,0.000285108,2460.1,0.000285108,34.4429,1793.84,631.822
529.5,3478.87,529.9255,3478.87,3557.97,0.000273263,3557.97,0.000273263,19.0462,3006.05,532.872
529.3,4758.05,529.7255,4758.05,4881.22,0.000257739,4881.22,0.000257739,10.0887,4418.63,452.51
529.1,4649.3,529.526,4649.3,4586.57,0.000238144,4586.57,0.000238144,5.11894,4194.23,387.216
528.9,3192.41,529.3255,3192.41,3046.56,0.00021991,3046.56,0.00021991,2.48796,2710.13,333.939
528.7,1846.46,529.126,1846.46,1909.47,0.000208259,1909.47,0.000208259,1.15831,1618.11,290.196
528.5,1046.1,528.9255,1046.1,1269.27,0.000201506,1269.27,0.000201506,0.516566,1014.74,254.02
528.3,579.44,528.7255,579.44,903.715,0.000198045,903.715,0.000198045,0.220671,679.622,223.872
528.1,197.828,528.526,197.828,680.391,0.000195882,680.392,0.000195882,0.0902989,481.744,198.557
527.9,256.584,528.3255,256.584,534.494,0.000194976,534.495,0.000194976,0.0353947,357.318,177.141
527.7,220.434,528.126,220.434,433.639,0.000193853,433.64,0.000193853,0.0132896,274.731,158.895
527.5,206.05,527.9255,206.05,360.656,0.000193052,360.656,0.000193052,0.00477975,217.407,143.244
527.3,370.925,527.7255,370.925,305.858,0.000192103,305.858,0.000192103,0.00164671,176.122,129.734
527.1,79.6127,527.526,79.6125,263.467,0.000190927,263.467,0.000190927,0.000543433,145.464,118.002
526.9,81.0,527.3255,80.9998,229.862,0.000190434,229.862,0.000190434,0.000171789,122.105,107.757
526.7,64.0,527.126,63.9998,202.678,0.000190268,202.678,0.000190268,5.20188e-05,103.915,98.7629
526.5,268.0,526.9255,268,180.312,0.000189749,180.312,0.000189749,1.50885e-05,89.4834,90.8287
526.3,172.0,526.7255,172,161.644,0.000188783,161.644,0.000188783,4.19227e-06,77.8468,83.7972
526.1,238.0,526.526,238,145.869,0.000188372,145.87,0.000188372,1.11576e-06,68.3309,77.5386
525.9,148.0,526.3255,148,132.398,0.000187685,132.398,0.000187685,2.84453e-07,60.4519,71.9456
525.7,20.0,526.126,19.9998,120.785,0.000187013,120.785,0.000187013,6.94656e-08,53.8563,66.9284
525.5,251.0,525.9255,251,110.692,0.000186627,110.692,0.000186627,1.62498e-08,48.2807,62.4115
525.3,355.0,525.7255,355,101.857,0.000185427,101.857,0.000185427,3.64119e-09,43.5256,58.3315
525.1,129.0,525.526,129,94.0726,0.00018405,94.0727,0.00018405,7.8155e-10,39.4381,54.6345
525.0,193.0,525.4255,193,90.5213,0.000183786,90.5215,0.000183786,3.56294e-10,37.6064,52.9149