File: XPS/LG4X-result/MX-UT-0.5-C1s.csv
#No of rows lightened (2D detector)1(if not using 2D detector, value is 1 and can be ignored!)
raw_x,raw_y,corrected x,data-bg,sum_components,bg,sum_fit,bg_shirley_,C=C,pi-pi*,pi-pi*2,C-C,C-O,C=O,O-C=O,TiC
294.7,12.0,295.354,11.9441,33.114,0.0559388,33.1699,0.0559388,16.6221,0.140577,4.02635,10.5457,4.5902e-05,0.942965,0.828507,0.00781989
294.4,39.1032,295.054,39.0473,44.0074,0.0559387,44.0633,0.0559387,17.5792,0.404921,12.855,11.2116,4.92638e-05,1.02692,0.921641,0.00818387
294.1,112.714,294.754,112.658,82.8873,0.0559379,82.9432,0.0559379,18.6214,1.07936,49.0808,11.9431,5.30097e-05,1.12256,1.03149,0.00857388
293.8,92.5189,294.454,92.463,80.4963,0.0559366,80.5523,0.0559366,19.7591,2.66259,42.9219,12.7493,5.72009e-05,1.23214,1.16235,0.00899245
293.5,51.086,294.1537,51.0301,53.9157,0.0559356,53.9717,0.0559356,21.0043,6.07828,10.5044,13.6407,6.1911e-05,1.35849,1.31995,0.00944245
293.2,90.6935,293.854,90.6376,56.4329,0.0559348,56.4888,0.0559348,22.3711,12.841,3.56341,14.63,6.72297e-05,1.50518,1.51219,0.0099271
292.9,93.4289,293.554,93.373,69.9364,0.0559336,69.9923,0.0559336,23.8758,25.1047,1.78629,15.7322,7.32668e-05,1.67681,1.75009,0.0104501
292.6,108.171,293.254,108.115,92.9388,0.0559325,92.9948,0.0559325,25.5376,45.4206,1.07552,16.9652,8.01583e-05,1.8793,2.04952,0.0110155
292.3,153.269,292.954,153.213,127.064,0.0559309,127.12,0.0559309,27.3792,76.0484,0.719144,18.351,8.80742e-05,2.12047,2.43393,0.0116281
292.0,195.783,292.6537,195.727,173.054,0.0559286,173.11,0.0559286,29.4274,117.833,0.514897,19.9163,9.72289e-05,2.41072,2.93929,0.0122933
291.7,193.619,292.354,193.563,229.156,0.0559257,229.212,0.0559257,31.7143,168.961,0.386912,21.6938,0.000107897,2.76414,3.62304,0.0130173
291.4,273.701,292.054,273.645,290.305,0.0559227,290.361,0.0559227,34.2786,224.205,0.3014,23.7246,0.000120432,3.20022,4.58143,0.0138072
291.1,362.743,291.754,362.687,348.537,0.0559181,348.593,0.0559181,37.167,275.323,0.241431,26.0599,0.000135301,3.74641,5.98396,0.0146712
290.8,344.256,291.454,344.2,394.88,0.0559126,394.936,0.0559126,40.4366,312.883,0.197748,28.7651,0.000153125,4.44235,8.13964,0.0156191
290.5,419.924,291.1537,419.868,422.261,0.055907,422.317,0.055907,44.1574,329.049,0.164941,31.9246,0.000174751,5.34671,11.6013,0.0166619
290.2,443.887,290.854,443.831,428.248,0.0559009,428.304,0.0559009,48.4165,320.243,0.139676,35.6484,0.000201354,6.54894,17.2334,0.0178129
289.9,398.986,290.554,398.931,416.12,0.0558943,416.176,0.0558943,53.3231,288.429,0.119804,40.0829,0.000234607,8.18979,25.9558,0.0190874
289.6,402.736,290.254,402.681,393.217,0.0558885,393.272,0.0558885,59.0152,240.402,0.103892,45.4254,0.000276961,10.4986,37.7504,0.0205039
289.3,343.047,289.954,342.991,367.258,0.0558832,367.314,0.0558832,65.6702,185.429,0.0909538,51.946,0.000332135,13.8619,50.2372,0.0220842
289.0,357.255,289.6537,357.2,343.605,0.0558782,343.661,0.0558782,73.5181,132.36,0.0802912,60.0194,0.000406016,18.9498,58.6524,0.0238548
288.7,289.55,289.354,289.494,326.249,0.0558728,326.305,0.0558728,82.8622,87.4335,0.0714,70.1678,0.000508424,26.9219,58.7659,0.0258473
288.4,328.452,289.054,328.396,320.868,0.0558684,320.923,0.0558684,94.1084,53.4488,0.0639084,83.1166,0.000657458,39.5853,50.5158,0.0281006
288.1,331.406,288.754,331.35,334.454,0.0558638,334.51,0.0558638,107.811,30.237,0.0575373,99.8551,0.000933825,58.3964,38.066,0.0306623
287.8,363.608,288.454,363.552,367.12,0.0558588,367.176,0.0558588,124.741,15.8299,0.0520738,121.682,0.00363249,78.565,26.2138,0.0335914
287.5,443.271,288.1537,443.215,404.327,0.0558533,404.382,0.0558533,145.998,7.66937,0.0473533,150.194,0.0660453,82.9064,17.4084,0.0369617
287.2,432.049,287.854,431.994,442.675,0.0558474,442.731,0.0558474,173.194,3.43859,0.0432469,187.161,0.955259,66.1329,11.7099,0.0408669
286.9,489.372,287.554,489.316,506.058,0.0558407,506.114,0.0558407,208.768,1.42673,0.0396525,234.2,7.7477,45.624,8.2064,0.0454264
286.6,614.493,287.254,614.438,620.729,0.055833,620.784,0.055833,256.556,0.547827,0.0364884,292.239,34.4655,30.807,6.02639,0.0507954
286.3,838.952,286.954,838.896,793.853,0.0558234,793.909,0.0558234,322.867,0.194664,0.0336885,360.776,83.923,21.392,4.60977,0.0571779
286.0,978.249,286.6537,978.193,986.89,0.0558108,986.946,0.0558108,418.675,0.0640128,0.031199,437.152,111.823,15.4379,3.64287,0.0648467
285.7,1133.07,286.354,1133.01,1176.64,0.0557958,1176.7,0.0557958,564.353,0.01948,0.0289756,516.127,81.5289,11.5544,2.95371,0.0741734
285.4,1470.07,286.054,1470.01,1434.81,0.0557778,1434.86,0.0557778,800.676,0.00548594,0.0269818,590.118,32.5273,8.92378,2.44476,0.0856744
285.1,1879.33,285.754,1879.27,1883.56,0.0557549,1883.61,0.0557549,1216.91,0.00142973,0.0251869,650.283,7.10367,7.07643,2.05786,0.100085
284.8,2773,285.454,2772.94,2734.65,0.0557247,2734.7,0.0557247,2037.83,0.000344822,0.0235653,688.331,0.851113,5.73693,1.75666,0.118481
284.5,4585.55,285.1537,4585.5,4710.25,0.0556781,4710.31,0.0556781,4005.22,7.69623e-05,0.0220955,698.554,0.0573699,4.73832,1.51745,0.142491
284.2,11176.3,284.854,11176.2,11023.8,0.0555878,11023.9,0.0555878,10339,1.58965e-05,0.020759,679.36,0.00323224,3.9758,1.32424,0.174671
283.9,20736.7,284.554,20736.7,20589.8,0.0553722,20589.9,0.0553722,19951.3,3.03853e-06,0.0195403,633.719,0.000911371,3.38136,1.16589,0.219239
283.6,8822.73,284.254,8822.67,8884.15,0.0551149,8884.2,0.0551149,8311.56,5.37486e-07,0.0184258,568.336,0.000648756,2.90953,1.03445,0.283567
283.3,1867.4,283.954,1867.35,1762.77,0.0550344,1762.82,0.0550344,1267.02,8.79855e-08,0.017404,491.891,0.00050264,2.52911,0.924134,0.381573
283.0,733.104,283.6537,733.049,623.142,0.055015,623.197,0.055015,206.529,1.33289e-08,0.0164649,413.004,0.000401918,2.2181,0.830631,0.542413
282.7,357.957,283.354,357.902,377.359,0.0550065,377.414,0.0550065,35.1825,1.86861e-09,0.0155999,338.612,0.000329118,1.96072,0.750677,0.837348
282.4,257.646,283.054,257.591,282.528,0.055002,282.583,0.055002,5.43204,2.42428e-10,0.0148012,273.144,0.000274671,1.74539,0.68177,1.50912
282.1,225.768,282.754,225.713,228.039,0.0549986,228.094,0.0549986,0.710638,2.91063e-11,0.0140624,218.529,0.000232826,1.56348,0.621958,6.5991
281.8,310.147,282.454,310.092,291.224,0.0549951,291.279,0.0549951,0.076008,3.23393e-12,0.0133775,174.743,0.000199941,1.40845,0.569705,114.413
281.5,773.842,282.1537,773.787,774.531,0.0549888,774.586,0.0549888,0.00650567,3.32518e-13,0.0127415,140.575,0.000173611,1.27528,0.523785,632.138
281.2,780.701,281.854,780.646,749.204,0.0549766,749.259,0.0549766,0.000439437,3.16403e-14,0.0121498,114.311,0.000152191,1.16006,0.483213,633.237
280.9,188.847,281.554,188.792,210.718,0.0549686,210.773,0.0549686,2.3201e-05,2.78616e-15,0.0115984,94.2124,0.000134525,1.05971,0.447188,114.987
280.6,79.9459,281.254,79.891,86.7987,0.0549667,86.8537,0.0549667,9.50878e-07,2.27044e-16,0.0110837,78.7672,0.000119781,0.971803,0.415054,6.63347
280.3,49.395,280.954,49.34,69.5776,0.0549659,69.6326,0.0549659,3.00971e-08,1.71221e-17,0.0106025,66.7749,0.000107345,0.894358,0.386269,1.51138
280.0,27.8159,280.6537,27.761,59.3684,0.0549652,59.4233,0.0549652,7.32833e-10,1.19493e-18,0.010152,57.3338,9.67574e-05,0.825787,0.360382,0.83817
279.7,55.1986,280.354,55.1436,51.442,0.0549646,51.497,0.0549646,1.36875e-11,7.71733e-20,0.00972955,49.7876,8.76679e-05,0.764787,0.337018,0.542833
279.4,35.4879,280.054,35.4329,45.0823,0.0549641,45.1373,0.0549641,1.94628e-13,4.61246e-21,0.00933297,43.6649,7.98057e-05,0.710288,0.315857,0.381818
279.1,29.8014,279.754,29.7464,39.8784,0.0549636,39.9334,0.0549636,0.0,2.55117e-22,0.00896016,38.6277,7.29587e-05,0.661399,0.29663,0.283723
278.8,22.9401,279.454,22.8852,35.5553,0.0549634,35.6103,0.0549634,0.0,1.30583e-23,0.00860924,34.4308,6.69589e-05,0.617377,0.27911,0.219345
278.5,16.0,279.1537,15.945,31.9187,0.0549632,31.9736,0.0549632,0.0,6.18546e-25,0.00827855,30.8949,6.16718e-05,0.577599,0.263099,0.174746
278.2,31.0,278.854,30.945,28.8265,0.0549629,28.8815,0.0549629,0.0,2.71143e-26,0.00796655,27.886,5.69885e-05,0.541537,0.248428,0.142546
277.9,4.0,278.554,3.94504,26.1729,0.0549625,26.2278,0.0549625,0.0,1.09993e-27,0.00767186,25.3029,5.28203e-05,0.508744,0.234953,0.118523
277.6,31.0,278.254,30.945,23.8768,0.0549624,23.9318,0.0549624,0.0,4.12926e-29,0.00739323,23.0679,4.90941e-05,0.478836,0.222546,0.100117
277.3,27.0,277.954,26.945,21.8757,0.0549622,21.9306,0.0549622,0.0,1.43456e-30,0.0071295,21.1202,4.57494e-05,0.451486,0.211098,0.0857
277.0,24.0,277.6537,23.945,20.1202,0.0549619,20.1751,0.0549619,0.0,4.61219e-32,0.00687964,19.4121,4.27359e-05,0.42641,0.200511,0.074194