File: XPS/LG4X-result/MX-UT-0.5-Ti2p.csv
#No of rows lightened (2D detector)1(if not using 2D detector, value is 1 and can be ignored!)
raw_x,raw_y,corrected x,data-bg,sum_components,bg,sum_fit,TiC,Ti 2+,Ti 3+,Ti 4+,TiC (2p1/2),Ti 2+ (2p1/2)
467.5,15775.0,467.9195,456.0,-15246.5,15319.0,72.5032,2.56834e-177,5.77541e-89,9.86492e-130,72.4973,9.45279e-31,0.0059297
467.3,15498.0,467.7195,179.0,-15243.4,15319.0,75.5614,9.61973e-172,7.20684e-86,8.23304e-125,75.547,7.82963e-29,0.0143897
467.1,15670.0,467.52,351.0,-15240.2,15319.0,78.825,2.94599e-166,7.96285e-83,5.54482e-120,78.7911,5.69367e-27,0.033874
466.9,15565.0,467.3195,246.0,-15236.7,15319.0,82.3237,7.37667e-161,7.7903e-80,3.01354e-115,82.2463,3.63498e-25,0.0773523
466.7,15466.0,467.12,147.0,-15232.9,15319.0,86.1024,1.51027e-155,6.74843e-77,1.32168e-110,85.9311,2.03734e-23,0.171346
466.5,15514.0,466.9195,195.0,-15228.8,15319.0,90.234,2.52821e-150,5.17622e-74,4.67778e-106,89.8659,1.00245e-21,0.368185
466.3,15371.0,466.7195,52.0,-15224.2,15319.0,94.841,3.46051e-145,3.51549e-71,1.33602e-101,94.0735,4.33009e-20,0.767454
466.1,15476.0,466.52,157.0,-15218.9,15319.0,100.131,3.87294e-140,2.11408e-68,3.07927e-97,98.5796,1.64191e-18,1.55178
465.9,15389.0,466.3195,70.0,-15212.5,15319.0,106.456,3.54419e-135,1.12569e-65,5.72723e-93,103.412,5.46531e-17,3.04372
465.7,15575.0,466.12,256.0,-15204.6,15319.0,114.395,2.65199e-130,5.30734e-63,8.59611e-89,108.604,1.59691e-15,5.79122
465.5,15541.0,465.9195,222.0,-15194.1,15319.0,124.879,1.6226e-125,2.21564e-60,1.04117e-84,114.19,4.09579e-14,10.6888
465.3,15556.0,465.7195,237.902,-15178.8,15318.1,139.348,8.11771e-121,8.18997e-58,1.01766e-80,120.21,9.22096e-13,19.1373
465.1,15460.0,465.52,144.078,-15156,15315.9,159.948,3.32083e-116,2.68058e-55,8.02682e-77,126.711,1.82216e-11,33.2374
464.9,15413.0,465.3195,100.025,-15123.2,15313,189.74,1.11085e-111,7.76849e-53,5.10913e-73,133.743,3.1605e-10,55.997
464.7,15645.0,465.12,334.795,-15077.3,15310.2,232.881,3.0385e-107,1.99346e-50,2.62429e-69,141.365,4.81146e-09,91.516
464.5,15836.0,464.9195,532.193,-15009.1,15303.8,294.728,6.79621e-103,4.52939e-48,1.08777e-65,149.643,6.42894e-08,145.085
464.3,15527.0,464.7195,227.62,-14917.6,15299.4,381.773,1.24303e-98,9.11244e-46,3.63852e-62,158.653,7.53933e-07,223.121
464.1,15977.0,464.52,685.971,-14789.7,15291,501.332,1.85912e-94,1.62327e-43,9.82141e-59,168.48,7.75973e-06,332.852
463.9,16029.0,464.3195,748.786,-14619.3,15280.2,660.902,2.27378e-90,2.56042e-41,2.13936e-55,179.225,7.00926e-05,481.677
463.7,16293.0,464.12,1025.26,-14400.6,15267.7,867.168,2.27412e-86,3.57596e-39,3.76059e-52,191.002,0.000555647,676.166
463.5,16472.0,463.9195,1220.88,-14126.4,15251.1,1124.7,1.85996e-82,4.42218e-37,5.33444e-49,203.942,0.0038656,920.756
463.3,16601.0,463.7195,1370.1,-13796.4,15230.9,1434.49,1.24402e-78,4.8422e-35,6.10638e-46,218.198,0.0236003,1216.27
463.1,16714.0,463.52,1505.25,-13416.2,15208.7,1792.57,6.80443e-75,4.69473e-33,5.64078e-43,233.949,0.126442,1558.5
462.9,17363.0,463.3195,2182.32,-12991.5,15180.7,2189.2,3.04369e-71,4.03034e-31,4.20491e-40,251.4,0.594464,1937.21
462.7,17588.0,463.12,2442.53,-12536.4,15145.5,2609.07,1.11343e-67,3.06361e-29,2.52951e-37,270.796,2.45253,2335.82
462.5,18049.0,462.9195,2945.84,-12069.8,15103.2,3033.4,3.33105e-64,2.062e-27,1.22794e-34,292.42,8.87869,2732.1
462.3,18657.0,462.7195,3603.92,-11608.4,15053.1,3444.71,8.15018e-61,1.22887e-25,4.81036e-32,316.608,28.2045,3099.9
462.1,18916.0,462.519,3918,-11163.8,14998,3834.23,1.6309e-57,6.48464e-24,1.52069e-29,343.756,78.6167,3411.85
461.9,19234.0,462.32,4298,-10726.7,14936,4209.34,2.66913e-54,3.02989e-22,3.8794e-27,374.331,192.278,3642.73
461.7,19295.0,462.12,4426.2,-10274.5,14868.8,4594.25,3.57276e-51,1.25352e-20,7.98638e-25,408.891,412.622,3772.74
461.5,19888.0,461.9195,5091.96,-9780.67,14796,5015.37,3.91145e-48,4.59195e-19,1.32678e-22,448.094,776.922,3790.35
461.3,20153.0,461.7195,5437.19,-9245.61,14715.8,5470.21,3.50253e-45,1.48945e-17,1.77871e-20,492.724,1283.5,3693.99
461.1,20497.0,461.519,5866.27,-8734.41,14630.7,5896.31,2.56534e-42,4.27776e-16,1.92431e-18,543.711,1860.36,3492.24
460.9,20789.0,461.32,6250.47,-8367.97,14538.5,6170.57,1.53688e-39,1.08785e-14,1.67999e-16,602.15,2365.78,3202.63
460.7,20471.0,461.12,6026.13,-8286.97,14444.9,6157.9,7.53139e-37,2.44953e-13,1.18359e-14,669.325,2639.51,2849.07
460.5,20062.0,460.9195,5706.51,-8566.51,14355.5,5788.98,3.01901e-34,4.88383e-12,6.72905e-13,746.719,2583.64,2458.62
460.3,19451.0,460.7195,5180.23,-9157.96,14270.8,5112.82,9.89969e-32,8.62185e-11,3.08723e-11,836.006,2218.68,2058.13
460.1,18407.0,460.519,4207.85,-9917.38,14199.1,4281.77,2.65557e-29,1.34773e-09,1.143e-09,939.003,1671.49,1671.28
459.9,17731.0,460.32,3590.49,-10661.7,14140.5,3478.76,5.82759e-27,1.86537e-08,3.41495e-08,1057.56,1104.72,1316.49
459.7,16738.0,460.12,2644.78,-11253.5,14093.2,2839.77,1.04624e-24,2.28608e-07,8.2335e-07,1193.29,640.52,1005.96
459.5,16505.0,459.9195,2449.72,-11636.6,14055.3,2418.64,1.53672e-22,2.48073e-06,1.60194e-05,1347.2,325.791,745.647
459.3,16305.0,459.7195,2285.64,-11818.9,14019.4,2200.42,1.84673e-20,2.38358e-05,0.000251518,1518.91,145.367,536.144
459.1,16169.0,459.519,2182.97,-11849.5,13986,2136.54,1.81582e-18,0.000202789,0.00318678,1705.68,56.8989,373.958
458.9,16041.0,459.32,2088.11,-11779.2,13952.9,2173.7,1.46091e-16,0.00152763,0.0325835,1901.1,19.5366,253.021
458.7,16257.0,459.12,2336.9,-11653.9,13920.1,2266.18,9.61772e-15,0.0101896,0.268847,2093.95,5.88429,166.067
458.5,16193.0,458.9195,2306.42,-11509.6,13886.6,2377,5.18136e-13,0.0601804,1.79008,2267.86,1.55465,105.732
458.3,16139.0,458.7195,2288.68,-11371.7,13850.3,2478.6,2.28434e-11,0.314714,9.61839,2403,0.360298,65.3009
458.1,16365.0,458.519,2551.6,-11250.7,13813.4,2562.7,8.24228e-10,1.45727,41.7055,2480.34,0.0732441,39.1225
457.9,16465.0,458.32,2692.56,-11110.3,13772.4,2662.11,2.43405e-08,5.97484,145.93,2487.46,0.0130605,22.7367
457.7,16615.0,458.12,2885.09,-10860.2,13729.9,2869.71,5.88351e-07,21.6908,412.059,2423.14,0.00204278,12.818
457.5,17063.0,457.9195,3381.89,-10367.5,13681.1,3313.56,1.16412e-05,69.7245,938.933,2297.9,0.000280251,7.00982
457.3,17873.0,457.7195,4247.61,-9566.76,13625.4,4058.63,0.000188557,198.453,1726.52,2129.94,3.37238e-05,3.71866
457.1,18433.0,457.519,4875.82,-8553.82,13557.2,5003.35,0.00250039,500.142,2561.94,1939.35,3.55944e-06,1.91364
456.9,19283.0,457.32,5807.61,-7547.14,13475.4,5928.24,0.0271474,1116.07,3067.81,1743.38,3.29518e-07,0.955271
456.7,20163.0,457.12,6781.74,-6656.58,13381.3,6724.69,0.241347,2205.21,2964.49,1554.29,2.67561e-08,0.462579
456.5,20878.0,456.9195,7607.39,-5719.52,13270.6,7551.09,1.75707,3858.08,2311.7,1379.33,1.90551e-09,0.217289
456.3,21968.0,456.7195,8822.88,-4481.35,13145.1,8663.76,10.4765,5976.62,1454.71,1221.86,1.19024e-10,0.0990112
456.1,22802.0,456.519,9798.67,-2932.88,13003.3,10070.4,51.164,8197.88,738.721,1082.63,6.52073e-12,0.0437647
455.9,23901.0,456.32,11054.3,-1421.87,12846.7,11424.8,204.685,9956.58,302.724,960.844,3.13318e-13,0.0187653
455.7,24770.0,456.12,12098.7,-338.079,12671.3,12333.2,670.862,10707.3,100.109,854.956,1.32039e-14,0.00780515
455.5,25397.0,455.9195,12917.5,307.561,12479.5,12787.1,1801.61,10195.6,26.7155,763.141,4.88021e-16,0.0031492
455.3,26196.0,455.7195,13920.5,974.867,12275.5,13250.4,3964.84,8596.24,5.75327,683.565,1.58196e-17,0.00123257
455.1,26706.0,455.519,14645.8,2124.28,12060.2,14184.4,7151.43,6417.5,0.999831,614.52,4.49743e-19,0.000467969
454.9,26918.0,455.32,15083.3,3535.7,11834.7,15370.4,10573.7,4242.14,0.140217,554.484,1.12136e-20,0.000172352
454.7,26416.0,455.12,14808.8,4195.08,11607.2,15802.3,12817.2,2482.94,0.0158685,502.136,2.45208e-22,6.15753e-05
454.5,25831.0,454.9195,14444.9,3097.1,11386.1,14483.2,12740,1286.8,0.00144921,456.344,4.70248e-24,2.13398e-05
454.3,23890.0,454.7195,12709.8,212.047,11180.2,11392.3,10385.6,590.496,0.000106804,416.148,7.90897e-26,7.17413e-06
454.1,19243.0,454.519,8223.37,-3454.18,11019.6,7565.45,6944.78,239.93,6.35196e-06,380.739,1.16657e-27,2.33959e-06
453.9,14368.0,454.32,3433.34,-6688.84,10934.7,4245.83,3810.07,86.3209,3.04851e-07,349.433,1.50902e-29,7.40124e-07
453.7,12433.0,454.12,1534.62,-8833.92,10898.4,2064.47,1715.31,27.4985,1.18067e-08,321.656,1.71188e-31,2.27123e-07
453.5,11717.0,453.9195,835.906,-9942.57,10881.1,938.52,633.839,7.75646,3.69006e-10,296.924,1.70309e-33,6.76102e-08
453.3,11641.0,453.7195,771.111,-10400.8,10869.9,469.045,192.28,1.93723,9.30675e-12,274.828,1.48589e-35,1.95234e-08
453.1,11454.0,453.519,593.674,-10557,10860.3,303.347,47.8963,0.428411,1.89419e-13,255.022,1.1369e-37,5.46881e-09
452.9,11405.0,453.32,552.663,-10605.2,10852.3,247.094,9.79902,0.0838884,3.11108e-15,237.211,7.62842e-40,1.48601e-09
452.7,11101.0,453.12,254.032,-10624.2,10847,222.808,1.64693,0.0145447,4.12345e-17,221.146,4.48875e-42,3.91694e-10
452.5,11071.0,452.9195,228.043,-10636.1,10843,206.843,0.227448,0.00223292,4.41033e-19,206.613,2.31628e-44,1.00153e-10
452.3,10885.0,452.7195,44.8272,-10646.7,10840.2,193.455,0.0258168,0.000303529,3.80664e-21,193.429,1.04817e-46,2.48412e-11
452.1,10949.0,452.519,110.634,-10656.9,10838.4,181.439,0.00240901,3.65335e-05,2.6514e-23,181.437,4.15948e-49,5.9769e-12
451.9,11053.0,452.32,216.475,-10666,10836.5,170.5,0.000184839,3.89353e-06,1.49029e-25,170.5,1.44749e-51,1.39499e-12
451.7,11021.0,452.12,188.157,-10672.3,10832.8,160.502,1.16644e-05,3.67417e-07,6.75967e-28,160.502,4.41732e-54,3.15836e-13
451.5,10903.0,451.9195,72.4372,-10679.2,10830.6,151.34,6.05543e-07,3.06999e-08,2.47425e-30,151.34,1.18213e-56,6.93656e-14
451.3,10836.0,451.7195,5.86118,-10687.2,10830.1,142.926,2.58663e-08,2.27131e-09,7.30839e-33,142.926,2.77416e-59,1.47781e-14
451.1,10955.0,451.519,126.076,-10693.7,10828.9,135.181,9.09332e-10,1.48791e-10,1.74205e-35,135.181,5.70897e-62,3.05414e-15
450.9,10910.0,451.32,82.3263,-10699.6,10827.7,128.039,2.63144e-11,8.63061e-12,3.35091e-38,128.039,1.03025e-64,6.12281e-16
450.7,10895.0,451.12,68.0075,-10705.6,10827,121.439,6.26947e-13,4.43269e-13,5.20147e-41,121.439,1.63035e-67,1.19071e-16
450.5,10977.0,450.9195,152.0,-10709.7,10825.0,115.328,1.23001e-14,2.01584e-14,6.51554e-44,115.328,2.26241e-70,2.24623e-17
450.3,10851.0,450.7195,26.0,-10715.3,10825.0,109.661,1.98747e-16,8.11721e-16,6.58622e-47,109.661,2.75306e-73,4.11051e-18