File: XPS/LG4X-result/MX-UT-0.5-2-C1s.csv
#No of rows lightened (2D detector)1(if not using 2D detector, value is 1 and can be ignored!)
raw_x,raw_y,corrected x,data-bg,sum_components,bg,sum_fit,bg_shirley_,C=C,pi-pi*,pi-pi*2,C-C,C-O,C_6,TiC
294.7,745.0,295.353,155.602,155.277,589.398,744.675,589.398,9.33077,43.9169,78.8701,17.4034,5.6243,0.0,0.131585
294.5,747.0,295.1528,160.654,177.328,586.346,763.674,586.346,9.68467,48.5533,94.9597,18.0959,5.89869,0.0,0.135617
294.3,787.0,294.953,203.791,200.175,583.209,783.384,583.209,10.0591,53.9734,110.979,18.8305,6.19356,0.0,0.139839
294.1,845.0,294.753,265.071,220.244,579.929,800.173,579.929,10.4557,60.3514,123.171,19.6105,6.51096,0.0,0.14426
293.9,828.0,294.553,251.458,233.532,576.542,810.074,576.542,10.8762,67.9022,127.312,20.4398,6.85326,0.0,0.148894
293.7,783.0,294.353,209.87,238.583,573.13,811.714,573.13,11.3226,76.8861,121.675,21.3227,7.22311,0.0,0.153756
293.5,782.0,294.1528,212.122,238.028,569.878,807.906,569.878,11.797,87.6124,108.573,22.2637,7.62352,0.0,0.158859
293.3,805.0,293.953,238.354,236.562,566.646,803.208,566.646,12.302,100.436,92.3331,23.2682,8.05793,0.0,0.164221
293.1,803.0,293.753,239.712,238.094,563.288,801.381,563.288,12.84,115.75,76.461,24.342,8.53028,0.0,0.169859
292.9,823.0,293.553,263.031,244.764,559.969,804.732,559.969,13.4142,133.961,62.6759,25.4914,9.04507,0.0,0.175793
292.7,817.0,293.353,260.346,257.383,556.654,814.037,556.654,14.0278,155.454,51.3876,26.7238,9.6075,0.0,0.182043
292.5,829.0,293.1528,275.762,276.071,553.238,829.309,553.238,14.6844,180.542,42.3851,28.0473,10.2236,0.0,0.188632
292.3,881.0,292.953,331.237,300.617,549.763,850.38,549.763,15.3884,209.394,35.2675,29.4711,10.9003,0.0,0.195586
292.1,859.0,292.753,312.942,330.596,546.058,876.654,546.058,16.1441,241.963,29.6344,31.0055,11.6458,0.0,0.202931
291.9,940.0,292.553,397.621,365.35,542.379,907.73,542.379,16.957,277.902,25.1492,32.6621,12.4695,0.0,0.210698
291.7,918.0,292.353,379.447,403.935,538.553,942.488,538.553,17.8329,316.499,21.5475,34.4542,13.3828,0.0,0.21892
291.5,931.0,292.1528,396.324,445.072,534.676,979.748,534.676,18.7785,356.642,18.6276,36.3969,14.399,0.0,0.227633
291.3,1036.0,291.953,505.303,487.148,530.697,1017.84,530.697,19.8013,396.832,16.2373,38.5075,15.5337,0.0,0.236877
291.1,1082.0,291.753,555.667,528.274,526.333,1054.61,526.333,20.9102,435.244,14.2617,40.8056,16.8059,0.0,0.246695
290.9,1146.0,291.553,624.128,566.403,521.872,1088.28,521.872,22.1148,469.865,12.6139,43.3141,18.2384,0.0,0.257137
290.7,1111.0,291.353,593.684,599.507,517.316,1116.82,517.316,23.4268,498.667,11.2277,46.0591,19.8587,0.0,0.268257
290.5,1132.0,291.1528,619.308,625.783,512.692,1138.48,512.692,24.8591,519.82,10.0522,49.071,21.7004,0.0,0.280114
290.3,1121.0,290.953,613.033,643.863,507.967,1151.83,507.967,26.427,531.905,9.04769,52.3853,23.8049,0.0,0.292774
290.1,1172.0,290.753,668.727,652.985,503.273,1156.26,503.273,28.1481,534.08,8.18344,56.0432,26.2233,0.0,0.306313
289.9,1103.0,290.553,604.527,653.104,498.473,1151.58,498.473,30.0432,526.192,7.43502,60.0936,29.0193,0.0,0.320814
289.7,1103.0,290.353,609.118,644.917,493.882,1138.8,493.882,32.1364,508.795,6.78298,64.5938,32.2732,0.0,0.336369
289.5,1070.0,290.1528,580.674,629.797,489.326,1119.12,489.326,34.4565,483.077,6.21176,69.612,36.0868,0.0,0.353085
289.3,1040.0,289.953,555.013,609.654,484.987,1094.64,484.987,37.0375,450.716,5.70872,75.2296,40.5906,0.0,0.371078
289.1,1053.0,289.753,572.29,586.753,480.71,1067.46,480.71,39.92,413.682,5.26359,81.5445,45.9529,0.0,0.390483
288.9,1086.0,289.553,609.635,563.519,476.365,1039.88,476.365,43.153,374.018,4.86793,88.6747,52.3932,0.0,0.411451
288.7,980.0,289.353,508.038,542.359,471.962,1014.32,471.962,46.7957,333.65,4.51474,96.764,60.2,0.0,0.434156
288.5,1017.0,289.1528,549.119,525.549,467.881,993.43,467.881,50.9206,294.228,4.19824,105.989,69.7544,0.0,0.458793
288.3,1018.0,288.953,554.317,515.18,463.683,978.863,463.683,55.6167,257.037,3.91356,116.566,81.5622,0.0,0.48559
288.1,1016.0,288.753,556.454,513.18,459.546,972.727,459.546,60.9947,222.956,3.65662,128.765,96.2928,0.0,0.514805
287.9,1046.0,288.553,590.646,521.396,455.354,976.749,455.354,67.1937,192.484,3.42395,142.927,114.82,0.0,0.54674
287.7,1060.0,288.353,608.965,541.699,451.035,992.735,451.035,74.3901,165.787,3.21263,159.479,138.248,0.0,0.581743
287.5,1121.0,288.1528,674.399,576.06,446.601,1022.66,446.601,82.8102,142.78,3.02013,178.969,167.86,0.0,0.620219
287.3,1087.0,287.953,644.895,626.429,442.105,1068.53,442.105,92.7489,123.203,2.84431,202.101,204.87,0.0,0.662645
287.1,1110.0,287.753,672.424,694.171,437.576,1131.75,437.576,104.596,106.693,2.6833,229.79,249.7,0.0,0.709581
286.9,1159.0,287.553,726.151,778.704,432.849,1211.55,432.849,118.874,92.8474,2.5355,263.233,300.452,0.0,0.761688
286.7,1241.0,287.353,813.037,875.467,427.963,1303.43,427.963,136.299,81.2651,2.3995,304.013,350.671,0.0,0.819757
286.5,1293.0,287.1528,870.242,975.194,422.758,1397.95,422.758,157.871,71.5727,2.2741,354.224,388.367,0.0,0.884734
286.3,1497.0,286.953,1079.81,1068.55,417.189,1485.74,417.189,185.02,63.4404,2.15823,416.644,400.33,0.0,0.957759
286.1,1597.0,286.753,1186,1156,410.997,1567,410.997,219.84,56.587,2.05094,494.925,381.556,0.0,1.04022
285.9,1667.0,286.553,1262.66,1252.82,404.337,1657.16,404.337,265.484,50.7786,1.95142,593.753,339.72,0.0,1.13382
285.7,1773.0,286.353,1375.74,1383.06,397.259,1780.32,397.259,326.846,45.8242,1.85894,718.793,288.499,0.0,1.24066
285.5,1907.0,286.1528,1517.46,1571.25,389.544,1960.79,389.544,411.807,41.5696,1.77285,875.995,238.739,0.0,1.36336
285.3,2190.0,285.953,1808.73,1839.74,381.273,2221.02,381.273,533.729,37.8912,1.69258,1069.27,195.658,0.0,1.50522
285.1,2492.0,285.753,2120.08,2210.49,371.915,2582.41,371.915,717.076,34.6897,1.61762,1295,160.433,0.0,1.67047
284.9,2917.0,285.553,2555.78,2712.61,361.224,3073.83,361.224,1012.37,31.8859,1.54751,1532.57,132.36,0.0,1.86454
284.7,3788.0,285.353,3439.75,3425.56,348.25,3773.81,348.25,1546.62,29.416,1.48185,1735.78,110.169,0.0,2.09457
284.5,5145.0,285.1528,4813.4,4711.97,331.598,5043.57,331.598,2746.82,27.2281,1.42026,1841.53,92.6039,0.0,2.37004
284.3,8704.0,284.953,8396.48,8080.6,307.518,8388.12,307.518,6165.13,25.2804,1.36242,1807.51,78.6149,0.0,2.70377
284.1,15457.0,284.753,15191.6,15619.4,265.445,15884.9,265.445,13876,23.5384,1.30803,1648.08,67.378,0.0,3.11349
283.9,21076.0,284.553,20881.7,20654.8,194.251,20849.1,194.251,19148.4,21.9737,1.25682,1421.26,58.2652,0.0,3.62421
283.7,14300.0,284.353,14188.3,13824.5,111.68,13936.2,111.68,12562.5,20.5625,1.20856,1185.19,50.8027,0.0,4.27222
283.5,5126.0,284.1528,5062.47,5242.82,63.5279,5306.35,63.5279,4199.12,19.2852,1.16301,973.508,44.633,0.0,5.11173
283.3,2020.0,283.953,1973.44,1918.84,46.5581,1965.4,46.5581,1056.43,18.1251,1.11998,797.448,39.4855,0.0,6.22681
283.1,1070.0,283.753,1030.51,1022.71,39.4909,1062.2,39.4909,305.537,17.0681,1.07929,656.121,35.1538,0.0,7.75362
282.9,711.0,283.553,675.526,706.806,35.4741,742.28,35.4741,104.053,16.1022,1.04077,544.206,31.4793,0.0,9.92497
282.7,495.0,283.353,462.233,550.9,32.7666,583.666,32.7666,37.4441,15.217,1.00428,455.728,28.3389,0.0,13.1671
282.5,400.0,283.1528,369.16,458.254,30.8398,489.094,30.8398,13.4582,14.4037,0.969663,385.452,25.6361,0.0,18.3347
282.3,363.0,282.953,333.796,399.151,29.2041,428.355,29.2041,4.70124,13.6547,0.936803,329.191,23.2951,0.0,27.3723
282.1,358.0,282.753,330.273,366.074,27.7275,393.801,27.7275,1.57116,12.9632,0.905581,283.732,21.2552,0.0,45.6469
281.9,396.0,282.553,369.78,372.929,26.2199,399.149,26.2199,0.49728,12.3235,0.875892,246.641,19.4677,0.0,93.1242
281.7,550.0,282.353,525.507,500.754,24.4934,525.247,24.4934,0.148015,11.7304,0.847635,216.084,17.8933,0.0,254.05
281.5,899.0,282.1528,877.07,863.24,21.9304,885.17,21.9304,0.0412208,11.1796,0.820722,190.677,16.5,0.0,644.022
281.3,1020.0,281.953,1001.99,1014.51,18.0066,1032.52,18.0066,0.0106994,10.667,0.795067,169.363,15.2612,0.0,818.414
281.1,645.0,281.753,630.955,621.983,14.0455,636.028,14.0455,0.00258072,10.1891,0.770595,151.337,14.1554,0.0,445.528
280.9,302.0,281.553,290.212,315.927,11.7882,327.715,11.7882,0.000577078,9.74292,0.747233,135.974,13.1642,0.0,156.298
280.7,194.0,281.353,183.36,210.187,10.64,220.827,10.64,0.000119402,9.32564,0.724915,122.785,12.2726,0.0,65.0785
280.5,149.0,281.1528,139.157,168.027,9.84278,177.869,9.84278,2.28241e-05,8.93479,0.703581,111.389,11.4677,0.0,35.5316
280.3,161.0,280.953,151.787,144.041,9.21289,153.254,9.21289,4.02549e-06,8.56819,0.683174,101.48,10.7389,0.0,22.5701
280.1,140.0,280.753,131.493,127.44,8.50659,135.946,8.50659,6.5435e-07,8.22384,0.66364,92.816,10.0768,0.0,15.6595
279.9,143.0,280.553,135.07,114.737,7.9304,122.667,7.9304,9.79418e-08,7.89998,0.644931,85.1992,9.47362,0.0,11.519
279.7,166.0,280.353,158.699,104.451,7.30051,111.751,7.30051,1.34881e-08,7.595,0.627,78.47,8.92265,0.0,8.83612
279.5,129.0,280.1528,122.334,95.829,6.66649,102.495,6.66649,1.70788e-09,7.30745,0.609806,72.4976,8.41805,0.0,6.99603
279.3,153.0,279.953,146.901,88.4363,6.09856,94.5349,6.09856,1.98716e-10,7.03601,0.593309,67.174,7.95481,0.0,5.67817
279.1,140.0,279.753,134.5,81.9967,5.49965,87.4963,5.49965,2.12364e-11,6.77951,0.577471,62.4096,7.52855,0.0,4.70152
278.9,117.0,279.553,112.041,76.3215,4.95857,81.2801,4.95857,2.08431e-12,6.53686,0.562258,58.1295,7.13546,0.0,3.95742
278.7,126.0,279.353,121.558,71.2752,4.44226,75.7174,4.44226,1.8696e-13,6.30708,0.547637,54.2709,6.7722,0.0,3.37732
278.5,126.0,279.1528,122.045,66.7557,3.95487,70.7106,3.95487,1.49676e-14,6.08926,0.533579,50.7808,6.43585,0.0,2.91626
278.3,139.0,278.953,135.57,62.6842,3.43031,66.1145,3.43031,1.98643e-15,5.88258,0.520054,47.614,6.12382,0.0,2.54371
278.1,144.0,278.753,141.148,58.9977,2.85205,61.8497,2.85205,0.0,5.6863,0.507037,44.7322,5.83384,0.0,2.23834
277.9,114.0,278.553,111.703,55.6454,2.29651,57.9419,2.29651,0.0,5.49973,0.494501,42.1023,5.56389,0.0,1.98491
277.7,126.0,278.353,124.183,52.5853,1.81738,54.4026,1.81738,0.0,5.32223,0.482424,39.6962,5.31217,0.0,1.77226
277.5,115.0,278.1528,113.734,49.7824,1.26597,51.0483,1.26597,0.0,5.15322,0.470784,37.4892,5.07709,0.0,1.59207
277.3,137.0,277.953,136.226,47.2071,0.774453,47.9816,0.774453,0.0,4.99217,0.45956,35.4601,4.85721,0.0,1.43805
277.1,117.0,277.753,116.758,44.8344,0.241629,45.0761,0.241629,0.0,4.83859,0.448731,33.5905,4.65125,0.0,1.30537