File: XPS/LG4X-result/MX-UT-0.1-1-C1s.csv
#No of rows lightened (2D detector)1(if not using 2D detector, value is 1 and can be ignored!)
raw_x,raw_y,corrected x,data-bg,sum_components,bg,sum_fit,C=C,pi-pi,pi-pi*2,C-C,C-O,C=O,TiC
295.0,777.0,295.4017,46.0,-700.08,731.0,30.9203,10.8929,8.5354,0.0462558,3.37444,6.92631,1.05714,0.0878543
294.8,732.0,295.202,1.0,-698.048,731.0,32.9525,11.3041,9.60329,0.0859962,3.50913,7.23899,1.12041,0.0905392
294.6,810.0,295.002,79.0,-695.625,731.0,35.3745,11.7391,10.9127,0.214535,3.65204,7.57324,1.18958,0.0933491
294.4,731.0,294.802,0.0,-691.536,731.0,39.4638,12.1996,12.5481,1.61947,3.80385,7.93109,1.26544,0.0962919
294.2,826.0,294.602,95.4273,-642.804,730.573,87.7689,12.6877,14.6297,46.7231,3.96533,8.31479,1.34886,0.0993761
294.0,771.0,294.4017,40.8036,-684.735,730.196,45.4615,13.2058,17.3276,0.520404,4.13729,8.72689,1.44092,0.102611
293.8,748.0,294.202,17.9916,-680.093,730.008,49.9149,13.7563,20.8778,0.141118,4.32069,9.17023,1.54285,0.106006
293.6,747.0,294.002,17.187,-673.878,729.813,55.9347,14.3419,25.597,0.0655214,4.51654,9.64806,1.65614,0.109573
293.4,789.0,293.802,59.4551,-665.862,729.545,63.6825,14.9657,31.893,0.0377883,4.72601,10.164,1.78258,0.113323
293.2,834.0,293.602,105.013,-655.357,728.987,73.6307,15.6312,40.2608,0.0245757,4.95038,10.7222,1.92431,0.117269
293.0,809.0,293.4017,80.5451,-642.116,728.455,86.3389,16.3421,51.2556,0.0172578,5.1911,11.3274,2.08395,0.121424
292.8,782.0,293.202,54.1129,-625.512,727.887,102.375,17.1026,65.4342,0.0127835,5.4498,11.985,2.2647,0.125805
292.6,867.0,293.002,139.732,-605.054,727.268,122.214,17.9174,83.2564,0.00984892,5.72831,12.7011,2.47056,0.130426
292.4,898.0,292.802,171.736,-580.157,726.264,146.107,18.792,104.954,0.0078205,6.02871,13.4828,2.70651,0.135308
292.2,884.0,292.602,158.707,-551.361,725.293,173.932,19.7322,130.382,0.00636007,6.35333,14.3384,2.97888,0.140469
292.0,919.0,292.4017,194.892,-519.052,724.108,205.056,20.7448,158.882,0.00527371,6.70487,15.2774,3.29583,0.14593
291.8,991.0,292.202,268.385,-484.351,722.615,238.264,21.8374,189.205,0.00444374,7.08638,16.3109,3.668,0.151717
291.6,1002.0,292.002,281.03,-449.197,720.97,271.773,23.0187,219.53,0.00379537,7.50135,17.4518,4.10952,0.157855
291.4,1010.0,291.802,290.899,-415.721,719.101,303.38,24.2985,247.605,0.00327924,7.95381,18.7154,4.63952,0.164373
291.2,1038.0,291.602,320.802,-386.469,717.198,330.729,25.6882,271.014,0.00286168,8.44841,20.1197,5.28436,0.171304
291.0,1073.0,291.4017,357.964,-363.37,715.036,351.666,27.2006,287.527,0.00251909,8.99054,21.6862,6.08099,0.178682
290.8,1070.0,291.202,357.301,-348.091,712.699,364.608,28.8507,295.46,0.00223454,9.58649,23.4404,7.08188,0.186548
290.6,1078.0,291.002,367.773,-341.38,710.227,368.846,30.6558,293.975,0.00199562,10.2436,25.4131,8.36181,0.194945
290.4,1051.0,290.802,342.992,-343.297,708.008,364.711,32.6358,283.231,0.00179307,10.9705,27.6416,10.0265,0.203922
290.2,1037.0,290.602,331.068,-352.379,705.932,353.553,34.8141,264.354,0.00161987,11.7775,30.1711,12.2215,0.213534
290.0,1056.0,290.4017,352.292,-366.159,703.708,337.549,37.2182,239.233,0.0014706,12.6766,33.0574,15.1385,0.223842
289.8,1025.0,290.202,323.288,-382.334,701.712,319.378,39.8803,210.198,0.00134106,13.6825,36.3692,19.0116,0.234916
289.6,1037.0,290.002,337.404,-397.762,699.596,301.835,42.8388,179.648,0.00122791,14.8128,40.1921,24.0947,0.246832
289.4,1001.0,289.802,303.301,-410.241,697.699,287.458,46.1393,149.724,0.0011285,16.0886,44.634,30.6114,0.259679
289.2,972.0,289.602,276.148,-417.624,695.852,278.228,49.8366,122.076,0.00104069,17.5361,49.8315,38.673,0.273556
289.0,992.0,289.4017,298.028,-418.596,693.972,275.377,53.9967,97.7681,0.000962749,19.1874,55.9593,48.1755,0.288576
288.8,945.0,289.202,252.825,-412.854,692.175,279.32,58.7,77.2845,0.000893245,21.0824,63.2437,58.704,0.304869
288.6,975.0,289.002,284.56,-400.695,690.44,289.745,64.0447,60.6377,0.000831006,23.2714,71.9793,69.489,0.322583
288.4,989.0,288.802,300.35,-382.817,688.65,305.833,70.1516,47.5087,0.000775052,25.8181,82.5549,79.457,0.341887
288.2,1044.0,288.602,357.277,-360.108,686.723,326.616,77.1707,37.3948,0.000724565,28.8044,95.4863,87.3956,0.362978
288.0,1008.0,288.4017,323.516,-333.07,684.484,351.413,85.2895,29.731,0.000678856,32.3371,111.464,92.2052,0.386085
287.8,1083.0,288.202,400.841,-301.89,682.159,380.269,94.7438,23.9763,0.00063734,36.557,131.413,93.1668,0.411472
287.6,1079.0,288.002,399.285,-265.426,679.715,414.289,105.834,19.6612,0.000599519,41.653,156.569,90.132,0.439449
287.4,1153.0,287.802,476.058,-221.121,676.942,455.82,118.943,16.4069,0.000564967,47.8832,188.552,83.5639,0.470383
287.2,1178.0,287.602,504.172,-165.423,673.828,508.405,134.572,13.9232,0.000533319,55.6067,229.387,74.4114,0.504704
287.0,1254.0,287.4017,583.733,-93.8226,670.267,576.444,153.376,11.9964,0.000504257,65.3351,281.325,63.868,0.542927
286.8,1329.0,287.202,662.55,-2.1005,666.45,664.349,176.236,10.4738,0.000477508,77.8152,346.138,53.1002,0.585666
286.6,1449.0,287.002,787,112.686,662,774.685,204.356,9.24736,0.000452832,94.169,423.243,43.0358,0.633664
286.4,1590.0,286.802,933.59,248.506,656.41,904.916,239.431,8.24179,0.000430021,116.138,506.159,34.2578,0.687821
286.2,1649.0,286.602,998.714,394.07,650.286,1044.36,283.925,7.40399,0.000408891,146.527,578.742,27.0086,0.749238
286.0,1812.0,286.4017,1168.58,534.506,643.418,1177.92,341.574,6.69622,0.000389281,190.046,617.523,21.266,0.819276
285.8,1962.0,286.202,1326.55,667.698,635.452,1303.15,418.334,6.09118,0.000371049,254.964,606.013,16.8481,0.89963
285.6,2124.0,286.002,1497.18,823.422,626.819,1450.24,524.308,5.56874,0.000354068,356.461,549.404,13.507,0.992434
285.4,2305.0,285.802,1688.16,1071.14,616.842,1687.98,678.052,5.11371,0.000338227,523.115,469.606,10.9949,1.1004
285.2,2797.0,285.602,2192.36,1521.57,604.639,2126.2,917.439,4.71444,0.000323425,805.828,387.897,9.09863,1.22704
285.0,3345.0,285.4017,2756.08,2333.21,588.92,2922.13,1332.46,4.36178,0.000309575,1260.41,315.873,7.65093,1.37692
284.8,4586.0,285.202,4018.56,3652.39,567.439,4219.83,2192.86,4.0485,0.000296595,1757.95,256.876,6.52817,1.55611
284.6,7339.0,285.002,6805.29,5954.31,533.709,6488.02,4502.9,3.76875,0.000284415,1763.82,210.116,5.642,1.77282
284.4,12716.0,284.802,12241.2,11761.5,474.825,12236.3,10782.9,3.51777,0.000272971,1269.5,173.463,4.9303,2.03834
284.2,20094.0,284.602,19721.3,19567.4,372.667,19940.1,18973.3,3.29164,0.000262203,812.027,144.722,4.34946,2.36856
284.0,18010.0,284.4017,17761.5,17200.4,248.529,17448.9,16790.3,3.08711,0.00025206,526.77,122.041,3.86857,2.7865
283.8,8055.0,284.202,7887.32,7746.07,167.682,7913.75,7441.44,2.90145,0.000242495,358.641,103.978,3.4654,3.32638
283.6,2738.0,284.002,2601.02,2614.26,136.978,2751.24,2395.57,2.73237,0.000233463,256.327,89.4446,3.12367,4.04113
283.4,1346.0,283.802,1220.38,1044.18,125.617,1169.8,890.807,2.5779,0.000224928,190.94,77.6273,2.83122,5.01608
283.2,786.0,283.602,666.137,517.883,119.863,637.746,411.274,2.43639,0.000216851,147.14,67.9195,2.57881,6.39659
283.0,525.0,283.4017,408.411,286.664,116.589,403.252,213.698,2.3064,0.000209203,116.574,59.8666,2.35932,8.44776
282.8,419.0,283.202,304.598,167.346,114.402,281.749,118.081,2.18669,0.000201951,94.4894,53.1249,2.16717,11.6996
282.6,356.0,283.002,243.399,101.817,112.601,214.417,67.4932,2.07619,0.000195071,78.057,47.4325,1.99792,17.3604
282.4,301.0,282.802,189.767,68.8059,111.233,180.039,39.2857,1.97397,0.000188536,65.5217,42.5878,1.84802,28.8213
282.2,334.0,282.602,224.115,70.0286,109.885,179.914,23.0564,1.87921,0.000182324,55.7536,38.4342,1.71459,59.0755
282.0,381.0,282.4017,272.668,152.244,108.332,260.576,13.5517,1.79119,0.000176414,48.0008,34.8489,1.59528,160.788
281.8,588.0,282.202,481.899,387.478,106.101,493.579,7.93857,1.70928,0.000170787,41.7486,31.7345,1.48814,408.96
281.6,748.0,282.002,645.604,553.522,102.396,655.918,4.61811,1.63293,0.000165425,36.6357,29.0134,1.39155,582.626
281.4,608.0,281.802,509.356,356.503,98.6441,455.147,2.66044,1.56163,0.000160311,32.4026,26.6231,1.30416,390.595
281.2,295.0,281.602,198.414,111.275,96.5861,207.861,1.51447,1.49494,0.000155431,28.8595,24.5126,1.22482,150.254
281.0,194.0,281.4017,98.2893,12.1734,95.7107,107.884,0.850395,1.43247,0.000150771,25.8649,22.6406,1.15257,55.943
280.8,173.0,281.202,77.8491,-20.1607,95.1509,74.9902,0.470336,1.37388,0.000146317,23.3115,20.9727,1.08658,27.7751
280.6,132.0,281.002,37.2027,-34.7128,94.7973,60.0845,0.25592,1.31883,0.000142057,21.117,19.4808,1.02613,16.8857
280.4,140.0,280.802,45.455,-43.3714,94.545,51.1736,0.136859,1.26706,0.000137981,19.2175,18.141,0.970635,11.4404
280.2,133.0,280.602,38.6852,-49.3191,94.3148,44.9956,0.07187,1.2183,0.000134078,17.5624,16.9337,0.919549,8.28969
280.0,117.0,280.4017,22.8581,-53.8135,94.1419,40.3284,0.0370345,1.17232,0.000130338,16.1117,15.842,0.872417,6.29281
279.8,135.0,280.202,41.0447,-57.3496,93.9553,36.6057,0.0187145,1.12891,0.000126753,14.8332,14.8517,0.82884,4.94416
279.6,120.0,280.002,26.2691,-60.2044,93.7309,33.5264,0.00926879,1.08789,0.000123313,13.7007,13.9508,0.788467,3.98919
279.4,131.0,279.802,37.4726,-62.6133,93.5274,30.914,0.00449711,1.04908,0.000120012,12.6928,13.129,0.750989,3.28763
279.2,114.0,279.602,20.633,-64.7104,93.367,28.6566,0.0021366,1.01232,0.000116841,11.7919,12.3771,0.716134,2.7568
279.0,135.0,279.4017,41.8357,-66.4856,93.1643,26.6788,0.000993646,0.977471,0.000113794,10.9835,11.6877,0.683663,2.3453
278.8,101.0,279.202,8.0,-68.0726,93.0,24.9274,0.00045218,0.944403,0.000110865,10.2553,11.054,0.653361,2.01977
278.6,99.0,279.002,6.0,-69.6366,93.0,23.3634,0.000201295,0.912994,0.000108048,9.59712,10.4702,0.625039,1.75776
278.4,104.0,278.802,11.0,-71.043,93.0,21.957,8.76356e-05,0.883135,0.000105336,9.0002,9.93116,0.598528,1.54373
278.2,112.0,278.602,19.0,-72.3151,93.0,20.6849,3.73033e-05,0.854725,0.000102726,8.45721,9.43253,0.573675,1.36661
278.0,126.0,278.4017,33.0,-73.4713,93.0,19.5287,1.55217e-05,0.827671,0.000100211,7.96185,8.97036,0.550344,1.21837
277.8,102.0,278.202,9.0,-74.5266,93.0,18.4734,6.31202e-06,0.801888,9.77878e-05,7.50871,8.54119,0.528414,1.09304
277.6,102.0,278.002,9.0,-75.4936,93.0,17.5064,2.50817e-06,0.777296,9.54512e-05,7.09314,8.14197,0.507773,0.986129
277.4,101.0,277.802,8.0,-76.3825,93.0,16.6175,9.73717e-07,0.753825,9.31974e-05,6.7111,7.76998,0.488323,0.894189
277.3,98.0,277.702,5.0,-76.8005,93.0,16.1995,6.01392e-07,0.742487,9.21003e-05,6.53154,7.59344,0.479016,0.852974