File: XPS/LG4X-result/MX-UT-0.5-4-Ti2p.csv
#No of rows lightened (2D detector)1(if not using 2D detector, value is 1 and can be ignored!)
raw_x,raw_y,corrected x,data-bg,sum_components,bg,sum_fit,TiC,Ti 2+,Ti 3+,C_4,C_5,C_6,C_7,C_8
470.0,15744.0,470.6528,425.0,-15226.5,15319.0,92.5027,19.9586,37.4276,29.4572,0.725963,4.08055e-09,5.52554e-14,4.93321,0.000141567
469.7,15909.0,470.353,590.0,-15222.9,15319.0,96.093,20.7322,38.9483,30.7181,0.774918,1.9918e-08,8.3667e-13,4.91931,0.0001411
469.4,15860.0,470.0528,541.0,-15219.1,15319.0,99.9117,21.5517,40.5636,32.0619,0.829021,9.25367e-08,1.14854e-11,4.9054,0.000140635
469.1,15871.0,469.753,552.0,-15215,15319.0,103.979,22.4206,42.2813,33.496,0.889024,4.09188e-07,1.42938e-10,4.89147,0.000140172
468.8,15820.0,469.453,501.0,-15210.7,15319.0,108.316,23.3432,44.1105,35.0286,0.955823,1.72215e-06,1.61272e-09,4.87754,0.00013971
468.5,15757.0,469.1528,438.0,-15206.1,15319.0,112.948,24.3239,46.0608,36.6691,1.03049,6.89862e-06,1.64962e-08,4.86359,0.000139249
468.2,15817.0,468.853,498.0,-15201.1,15319.0,117.903,25.3676,48.1433,38.4277,1.11431,2.63022e-05,1.52974e-07,4.84963,0.00013879
467.9,15703.0,468.5528,384.0,-15195.8,15319.0,123.211,26.4799,50.3701,40.3163,1.20886,9.54474e-05,1.28607e-06,4.83566,0.000138332
467.6,15702.0,468.253,383.0,-15190.1,15319.0,128.908,27.667,52.7549,42.3479,1.31606,0.000329667,9.80212e-06,4.82168,0.000137876
467.3,15498.0,467.953,179.0,-15184,15319.0,135.033,28.9356,55.3129,44.5373,1.43827,0.00108375,6.77307e-05,4.80769,0.000137421
467.0,15555.0,467.6528,236.0,-15177.4,15319.0,141.632,30.2934,58.0614,46.9015,1.57843,0.00339095,0.000424285,4.79369,0.000136968
466.7,15466.0,467.353,147.0,-15170.2,15319.0,148.761,31.749,61.0196,49.4595,1.74024,0.0100985,0.00240951,4.77967,0.000136516
466.4,15437.0,467.0528,118.0,-15162.5,15319.0,156.49,33.3119,64.2096,52.2331,1.92836,0.028624,0.0124047,4.76565,0.000136065
466.1,15476.0,466.753,157.0,-15154.1,15319.0,164.932,34.993,67.656,55.2474,2.14877,0.0772227,0.0578897,4.75162,0.000135616
465.8,15490.0,466.453,171.0,-15144.7,15319.0,174.313,36.8045,71.3871,58.5312,2.40921,0.19829,0.244862,4.73759,0.000135168
465.5,15541.0,466.1528,222.0,-15133.8,15319.0,185.18,38.7602,75.4351,62.1176,2.71984,0.484615,0.938534,4.72354,0.000134722
465.2,15413.0,465.853,96.1832,-15117.9,15316.8,198.947,40.8759,79.8367,66.0451,3.09422,1.12729,3.25856,4.70948,0.000134277
464.9,15413.0,465.5528,100.068,-15093.8,15312.9,219.147,43.1693,84.6345,70.3586,3.55086,2.49581,10.2421,4.69542,0.000133834
464.6,15718.0,465.253,410.704,-15053.5,15307.3,253.823,45.6609,89.8773,75.1105,4.11567,5.25933,29.1174,4.68135,0.000133392
464.3,15527.0,464.953,227.762,-14980.1,15299.2,319.177,48.3743,95.6218,80.3625,4.82626,10.5485,74.7762,4.66728,0.000132951
464.0,15995.0,464.6528,709.502,-14842.3,15285.5,443.164,51.3365,101.934,86.1878,5.74003,20.1367,173.176,4.65319,0.000132512
463.7,16293.0,464.353,1025.64,-14602.1,15267.4,665.232,54.5789,108.891,92.6733,6.9531,36.5872,360.91,4.6391,0.000132074
463.4,16614.0,464.0528,1373.28,-14214.4,15240.7,1026.36,58.1378,116.583,99.9232,8.66963,63.2717,675.151,4.62501,0.000131638
463.1,16714.0,463.753,1506.07,-13661.9,15207.9,1546.03,62.0557,125.118,108.063,11.577,104.143,1130.46,4.61091,0.000131203
462.8,17496.0,463.453,2333.59,-12968.5,15162.4,2193.89,66.3825,134.623,117.246,18.8647,163.152,1689.03,4.5968,0.000130769
462.5,18049.0,463.1528,2947.45,-12220.2,15101.6,2881.38,71.1769,145.25,127.659,44.6398,243.274,2244.8,4.58269,0.000130337
462.2,18532.0,462.853,3508.06,-11517.9,15023.9,3506.01,76.5087,157.182,139.534,137.336,345.255,2645.63,4.56857,0.000129906
461.9,19234.0,462.553,4300.89,-10886.8,14933.1,4046.3,82.4611,170.642,153.159,412.349,466.363,2756.77,4.55445,0.000129477
461.6,19673.0,462.253,4843,-10219.1,14830,4610.85,89.1339,185.901,168.901,1030.05,599.582,2532.74,4.54032,0.000129049
461.3,20153.0,461.953,5441.79,-9416.2,14711.2,5295.01,96.6478,203.291,187.226,2023.14,733.692,2046.48,4.5262,0.000128622
461.0,20689.0,461.6528,6109.28,-8668.46,14579.7,5911.25,105.15,223.228,208.737,3064.1,854.515,1451.02,4.51206,0.000128197
460.7,20471.0,461.353,6032.9,-8438.85,14438.1,5999.25,114.82,246.228,234.227,3551.23,947.254,900.996,4.49793,0.000127773
460.4,20044.0,461.053,5739.74,-9008.28,14304.3,5295.99,125.883,272.946,264.755,3139.38,999.433,489.109,4.48379,0.00012735
460.1,18407.0,460.753,4216.71,-10091,14190.3,4099.25,138.617,304.216,301.757,2114.77,1003.65,231.775,4.46965,0.000126929
459.8,17235.0,460.453,3129.59,-11117.4,14105.4,2988.03,153.374,341.108,347.227,1086.83,959.29,95.7507,4.45551,0.000126509
459.5,16505.0,460.1528,2460.03,-11745.4,14045,2299.6,170.605,385.013,403.981,428.424,872.689,34.4464,4.44136,0.00012609
459.2,16165.0,459.853,2173.42,-11984.3,13991.6,2007.3,190.89,437.748,476.112,131.71,755.63,10.7809,4.42722,0.000125673
458.9,16041.0,459.553,2099.64,-11991.6,13941.4,1949.75,214.991,501.713,569.726,33.2481,622.73,2.93302,4.41307,0.000125257
458.6,16004.0,459.253,2112.86,-11871.3,13891.1,2019.81,243.919,580.109,694.22,8.0087,488.462,0.693128,4.39892,0.000124842
458.3,16139.0,458.953,2301.48,-11645.1,13837.5,2192.38,279.042,677.247,864.449,2.44234,364.672,0.142194,4.38477,0.000124429
458.0,16574.0,458.6528,2794.32,-11289.8,13779.7,2489.91,322.238,799.029,1104.05,1.07071,259.128,0.0253099,4.37063,0.000124017
457.7,16615.0,458.353,2899.37,-10756.5,13715.6,2959.09,376.149,953.684,1449.08,0.569653,175.254,0.00390693,4.35648,0.000123606
457.4,17191.0,458.053,3551.25,-9977.28,13639.8,3662.47,444.57,1152.96,1947.47,0.320345,112.814,0.000522808,4.34233,0.000123196
457.1,18433.0,457.753,4892,-8876.64,13541,4664.36,533.098,1414.13,2643.5,0.182223,69.1187,6.0626e-05,4.32818,0.000122788
456.8,19552.0,457.453,6139.29,-7419.6,13412.7,5993.12,650.23,1763.42,3534.74,0.103544,40.3061,6.09046e-06,4.31404,0.000122382
456.5,20878.0,457.1528,7626.39,-5665.05,13251.6,7586.57,809.307,2241.76,4508.78,0.0584537,22.371,5.29906e-07,4.29989,0.000121976
456.2,22470.0,456.853,9414.75,-3781.08,13055.3,9274.17,1032.04,2913.56,5312.44,0.0326707,11.818,3.99209e-08,4.28575,0.000121572
455.9,23901.0,456.553,11077.2,-1955.31,12823.8,10868.5,1355.18,3874.14,5628.93,0.0180331,5.94209,2.60354e-09,4.27161,0.000121169
455.6,25372.0,456.253,12820.4,-216.931,12551.6,12334.7,1843.36,5221.18,5263.01,0.00981088,2.84365,1.46962e-10,4.25747,0.000120767
455.3,26196.0,455.953,13948.6,1510.67,12247.4,13758.1,2613.09,6842.93,4296.53,0.00525297,1.29525,7.17884e-12,4.24333,0.000120367
455.0,26821.0,455.6528,14903.8,2862.65,11917.2,14779.8,3868.18,7851.73,3055.13,0.00276455,0.561531,3.0342e-13,4.2292,0.000119968
454.7,26416.0,455.353,14843,3104.62,11573,14677.6,5877.53,6892.39,1903.25,0.00142864,0.231704,1.10947e-14,4.21507,0.00011957
454.4,24860.0,455.053,13617.5,2374.9,11242.5,13617.4,8018.71,4540.81,1053.59,0.000724309,0.0909983,3.50929e-16,4.20094,0.000119174
454.1,19243.0,454.753,8263.44,-2986.74,10979.6,7992.81,4926.02,2532.81,529.759,0.000360011,0.0340153,9.60074e-18,4.18682,0.000118778
453.8,13215.0,454.453,2343.84,-8800.83,10871.2,2070.33,476.27,1341.34,248.534,0.000175318,0.0121019,2.27159e-19,4.1727,0.000118384
453.5,11717.0,454.1528,878.861,-10009.7,10838.1,828.428,4.6962,707.908,111.661,8.36033e-05,0.00409805,4.64791e-21,4.15858,0.000117992
453.2,11444.0,453.853,623.295,-10391.6,10820.7,429.124,0.00452988,376.037,48.9374,3.90212e-05,0.00132081,8.22338e-23,4.14447,0.0001176
452.9,11405.0,453.553,597.839,-10581.5,10807.2,225.65,4.23939e-07,200.437,21.0821,1.78189e-05,0.000405175,1.25799e-24,4.13037,0.00011721
452.6,11133.0,453.253,334.363,-10679,10798.6,119.605,3.75243e-12,106.571,8.91733,7.95803e-06,0.000118301,1.66382e-26,4.11627,0.000116821
452.3,10885.0,452.953,92.2082,-10728.8,10792.8,63.9794,0.0,56.193,3.68402,3.47483e-06,3.28754e-05,1.90246e-28,4.10217,0.000116433
452.0,10917.0,452.6528,127.851,-10754.3,10789.1,34.8042,0.0,29.2381,1.47785,1.48299e-06,8.69554e-06,1.88048e-30,4.08808,0.000116047
451.7,11021.0,452.353,237.811,-10763.6,10783.2,19.5978,0.0,14.9509,0.572784,6.18461e-07,2.18908e-06,1.60687e-32,4.074,0.000115661
451.4,10847.0,452.053,67.5985,-10767.6,10779.4,11.7622,0.0,7.48846,0.213651,2.5197e-07,5.24528e-07,1.18632e-34,4.05993,0.000115277
451.1,10955.0,451.753,178.085,-10769.1,10776.9,7.78641,0.0,3.66398,0.076466,1.00267e-07,1.19623e-07,7.57763e-37,4.04586,0.000114895
450.8,10842.0,451.453,67.9201,-10768.3,10774.1,5.80547,0.0,1.74736,0.0261977,3.89637e-08,2.59659e-08,4.18341e-39,4.03179,0.000114513
450.5,10977.0,451.1528,206.475,-10765.7,10770.5,4.83717,0.0,0.810745,0.00857589,1.47834e-08,5.36453e-09,2.05398e-41,4.01774,0.000114133
450.2,10769.0,450.853,0.0,-10764.6,10769.0,4.3719,0.0,0.36542,0.00267834,5.47565e-09,1.05487e-09,1.06055e-43,4.00369,0.000113753
450.0,10773.0,450.6528,4.0,-10764.8,10769.0,4.20689,0.0,0.211245,0.00120034,2.78636e-09,3.4705e-10,0.0,3.99433,0.000113501