File: XPS/LG4X-result/UT-1-C1s.csv
#No of rows lightened (2D detector)1(if not using 2D detector, value is 1 and can be ignored!)
raw_x,raw_y,corrected x,data-bg,sum_components,bg,sum_fit,C=C,pi-pi*,pi-pi*2,C-C,C-O,C=O
295.0,721.0,295.6303,0.0,-675.232,721.0,45.7685,9.99187,15.3319,4.20873,1.45415,11.625,3.15675
294.8,759.0,295.43,38.1692,-664.126,720.831,56.7052,10.3611,17.1169,12.2543,1.51101,12.1232,3.33871
294.6,820.0,295.23,99.5804,-645.542,720.42,74.878,10.7513,19.2663,27.0982,1.57127,12.654,3.53698
294.4,792.0,295.03,72.1591,-622.668,719.841,97.1729,11.1638,21.8898,45.5102,1.63521,13.2203,3.7536
294.2,810.0,294.8303,90.6845,-605.011,719.315,114.304,11.6006,25.1356,58.0487,1.70314,13.8252,3.99092
294.0,847.0,294.6303,128.338,-600.663,718.662,117.999,12.0636,29.2022,56.2331,1.77538,14.4726,4.25168
293.8,848.0,294.43,129.985,-608.18,718.015,109.835,12.5549,34.3506,41.3721,1.85232,15.1662,4.53912
293.6,800.0,294.23,82.6081,-617.581,717.392,99.8111,13.0767,40.9149,23.1174,1.93438,15.9107,4.85702
293.4,795.0,294.03,78.1545,-620.153,716.845,96.6926,13.6319,49.3073,9.81036,2.02201,16.7111,5.20991
293.2,808.0,293.8303,91.6193,-613.691,716.381,102.689,14.2231,60.0121,3.1619,2.11573,17.5732,5.60319
293.0,846.0,293.6303,130.314,-599.734,715.686,115.952,14.8537,73.5619,0.773973,2.21612,18.5033,6.04332
292.8,861.0,293.43,146.07,-580.398,714.93,134.532,15.5272,90.4901,0.143886,2.32384,19.5089,6.53819
292.6,865.0,293.23,150.931,-556.411,714.069,157.659,16.2475,111.256,0.0203156,2.4396,20.5982,7.0974
292.4,880.0,293.03,166.817,-527.943,713.183,185.24,17.0192,136.141,0.00217849,2.56423,21.7807,7.7328
292.2,907.0,292.8303,194.839,-494.955,712.161,217.207,17.8473,165.134,0.000177417,2.69867,23.0673,8.45915
292.0,977.0,292.6303,266.135,-457.705,710.865,253.16,18.7373,197.813,1.09737e-05,2.84396,24.4706,9.29504
291.8,1001.0,292.43,291.701,-417.081,709.299,292.219,19.6956,233.253,5.15497e-07,3.00131,26.0049,10.2642
291.6,1034.0,292.23,326.379,-374.639,707.621,332.983,20.7293,269.997,1.83914e-08,3.17209,27.6868,11.3971
291.4,1109.0,292.03,403.464,-331.953,705.536,373.583,21.8467,306.109,4.98332e-10,3.35788,29.536,12.7338
291.2,1106.0,291.8303,402.73,-291.439,703.27,411.831,23.057,339.311,1.02551e-11,3.56048,31.5749,14.3276
291.0,1201.0,291.6303,500.13,-255.412,700.87,445.458,24.3708,367.225,1.60278e-13,3.78199,33.8302,16.2499
290.8,1200.0,291.43,501.743,-225.841,698.257,472.415,25.8003,387.659,1.90251e-15,4.02483,36.3333,18.5983
290.6,1230.0,291.23,534.61,-204.208,695.39,491.181,27.3593,398.902,1.71511e-17,4.29184,39.1214,21.5065
290.4,1193.0,291.03,500.41,-191.562,692.59,501.028,29.0642,399.981,1.17429e-19,4.58633,42.2389,25.1581
290.2,1214.0,290.8303,524.22,-187.595,689.78,502.185,30.9337,390.799,6.10625e-22,4.91221,45.739,29.8012
290.0,1090.0,290.6303,402.963,-191.167,687.037,495.87,32.9896,372.157,2.41151e-24,5.27411,49.6859,35.7631
289.8,1159.0,290.43,474.46,-200.362,684.54,484.178,35.2578,345.63,7.23301e-27,5.67753,54.1576,43.4547
289.6,1166.0,290.23,484.056,-212.109,681.944,469.834,37.7683,313.333,1.64765e-29,6.12908,59.2498,53.3536
289.4,1137.0,290.03,457.718,-223.426,679.282,455.856,40.5571,277.632,2.85054e-32,6.63674,65.08,65.9499
289.2,1122.0,289.8303,445.29,-231.553,676.71,445.157,43.667,240.846,3.74545e-35,7.2102,71.7946,81.639
289.0,1131.0,289.6303,456.764,-234.091,674.236,440.145,47.1491,204.997,3.73764e-38,7.86134,79.5768,100.56
288.8,1134.0,289.43,462.353,-229.264,671.647,442.383,51.0655,171.651,2.83274e-41,8.60487,88.6584,122.404
288.6,1152.0,289.23,483.009,-216.627,668.991,452.364,55.4913,141.84,1.63054e-44,9.45914,99.3352,146.239
288.4,1189.0,289.03,522.811,-196.706,666.189,469.483,60.519,116.088,7.12805e-48,10.4473,111.988,170.441
288.2,1166.0,288.8303,502.629,-171.116,663.371,492.255,66.2625,94.4805,2.36661e-51,11.5988,127.112,192.801
288.0,1160.0,288.6303,499.428,-141.774,660.572,518.799,72.8639,76.7878,5.96759e-55,12.9518,145.359,210.836
287.8,1128.0,288.43,470.231,-110.276,657.769,547.493,80.5017,62.5781,1.14284e-58,14.5563,167.592,222.265
287.6,1219.0,288.23,564.102,-77.2008,654.898,577.697,89.4019,51.3263,1.66222e-62,16.4786,194.964,225.526
287.4,1284.0,288.03,632.412,-41.2485,651.588,610.339,99.8539,42.4949,1.83615e-66,18.8088,229.024,220.158
287.2,1290.0,287.8303,642.03,0.286628,647.97,648.256,112.231,35.5869,1.54044e-70,21.6709,271.852,206.916
287.0,1316.0,287.6303,671.717,51.9457,644.283,696.229,127.022,30.174,9.81508e-75,25.2401,326.209,187.584
286.8,1417.0,287.43,776.899,120.639,640.101,760.74,144.872,25.9062,4.74964e-79,29.7704,395.65,164.541
286.6,1498.0,287.23,862.514,213.962,635.486,849.448,166.646,22.5079,1.74559e-83,35.641,484.41,140.243
286.4,1594.0,287.03,963.72,339.832,630.28,970.112,193.531,19.7686,4.87237e-88,43.4383,596.598,116.776
286.2,1774.0,286.8303,1149.74,503.896,624.257,1128.15,227.187,17.5308,1.03289e-92,54.1087,733.733,95.5936
286.0,1981.0,286.6303,1363.72,704.387,617.283,1321.67,270.014,15.6775,1.66296e-97,69.2606,889.256,77.4625
285.8,2131.0,286.43,1521.75,925.341,609.249,1534.59,325.62,14.1228,2.03342e-102,91.808,1040.48,62.5633
285.6,2301.0,286.23,1700.82,1136.51,600.18,1736.69,399.707,12.8029,1.88838e-107,127.477,1146.03,50.6761
285.4,2440.0,286.03,1849.85,1317.68,590.151,1907.83,501.87,11.6705,1.33188e-112,188.757,1164.17,41.3689
285.2,2742.0,285.8303,2162.96,1508.51,579.039,2087.55,649.632,10.6897,7.1344e-118,306.48,1086.6,34.147
285.0,3093.0,285.6303,2527.06,1859.55,565.935,2425.49,878.729,9.83343,2.90245e-123,561.902,946.48,28.5458
284.8,3682.0,285.43,3131.96,2652.86,550.036,3202.9,1274.99,9.08033,8.96786e-129,1105.83,788.825,24.1748
284.6,5026.0,285.23,4497.15,4092.18,528.849,4621.02,2107.77,8.4138,2.1044e-134,1840.52,643.588,20.7272
284.4,7615.0,285.03,7117.92,6512.23,497.082,7009.31,4474.6,7.82053,3.75045e-140,1986.67,522.25,17.9721
284.2,13816.0,284.8303,13374.8,12819.8,441.234,13261.1,11479.9,7.28979,5.07638e-146,1332.71,425.403,15.7397
284.0,23025.0,284.6303,22686.1,22667.5,338.865,23006.3,21946.5,6.81282,5.21844e-152,689.669,349.461,13.9065
283.8,22477.0,284.43,22270.4,21790.1,206.604,21996.7,21324.5,6.38238,4.07421e-158,363.367,290.081,12.3821
283.6,10456.0,284.23,10342,10389.2,113.955,10503.2,10026.5,5.99245,2.4158e-164,216.159,243.428,11.1
283.4,3322.0,284.03,3243.47,3299.16,78.5275,3377.68,3013.12,5.63798,1.08792e-170,142.455,206.458,10.0109
283.2,1413.0,283.8303,1346.4,1193.36,66.6033,1259.96,967.862,5.31469,3.72087e-177,100.846,176.862,9.0772
283.0,794.0,283.6303,733.15,586.104,60.8504,646.955,405.626,5.01897,9.66519e-184,75.1243,152.916,8.27035
282.8,470.0,283.43,412.268,343.759,57.7323,401.491,197.714,4.7477,1.90674e-190,58.1267,133.335,7.56803
282.6,324.0,283.23,268.103,222.362,55.8972,278.259,103.335,4.49822,2.85686e-197,46.3109,117.162,6.95269
282.4,244.0,283.03,189.376,153.394,54.6244,208.018,55.8976,4.2682,3.25088e-204,37.7656,103.676,6.41038
282.2,213.0,282.8303,159.335,110.759,53.6647,164.423,30.7202,4.05565,2.8095e-211,31.3858,92.3318,5.92985
282.0,174.0,282.6303,121.08,82.6081,52.9195,135.528,16.9607,3.85881,1.84405e-218,26.4969,82.7092,5.50196
281.8,161.0,282.43,108.731,63.016,52.269,115.285,9.33661,3.67616,9.19249e-226,22.6679,74.4851,5.11922
281.6,129.0,282.23,77.2514,48.65,51.7486,100.399,5.09749,3.50634,3.48024e-233,19.613,67.4064,4.77543
281.4,135.0,282.03,83.6871,37.6607,51.3129,88.9736,2.74944,3.34816,1.00069e-240,17.1367,61.2738,4.46544
281.2,118.0,281.8303,67.0732,28.9497,50.9268,79.8765,1.46068,3.20057,2.18528e-248,15.1016,55.9287,4.18493
281.0,103.0,281.6303,52.4276,21.8356,50.5724,72.408,0.762547,3.06263,3.62435e-256,13.4087,51.2438,3.93024
280.8,106.0,281.43,55.7191,15.8431,50.2809,66.1239,0.390452,2.93352,4.56529e-264,11.9855,47.1163,3.69827
280.6,89.0,281.23,38.9841,10.7182,50.0159,60.7341,0.195792,2.81248,4.3674e-272,10.7774,43.4621,3.48639
280.4,82.0,281.03,32.1744,6.21716,49.8256,56.0428,0.0960273,2.69885,3.17316e-280,9.74319,40.2124,3.29232
280.2,74.0,280.8303,24.3418,2.25529,49.6582,51.9135,0.0460161,2.59204,1.75097e-288,8.85107,37.3102,3.11411
280.0,82.0,280.6303,32.5101,-1.24233,49.4899,48.2475,0.0215254,2.49149,7.33803e-297,8.07612,34.7083,2.95007
279.8,68.0,280.43,18.6174,-4.41166,49.3826,44.9709,0.0098216,2.39674,2.33559e-305,7.39868,32.367,2.79872
279.6,63.0,280.23,13.7436,-7.23005,49.2564,42.0264,0.00436836,2.30733,5.64586e-314,6.80305,30.2528,2.65879
279.4,58.0,280.03,8.81688,-9.81499,49.1831,39.3681,0.00189281,2.22288,0.0,6.27657,28.3376,2.52915
279.2,61.0,279.8303,11.9103,-12.1307,49.0897,36.9589,0.000798609,2.14301,0.0,5.80893,26.5974,2.40881
279.0,54.0,279.6303,4.97894,-14.2532,49.0211,34.7679,0.000327947,2.0674,0.0,5.39168,25.0116,2.29689
278.8,49.0,279.43,0.0,-16.2311,49.0,32.7689,0.000131023,1.99575,0.0,5.01783,23.5625,2.19263
278.6,53.0,279.23,4.0,-18.0602,49.0,30.9398,5.09111e-05,1.92778,0.0,4.68156,22.2351,2.09534
278.4,53.0,279.03,4.0,-19.7382,49.0,29.2618,1.92338e-05,1.86326,0.0,4.378,21.0161,2.00441
278.2,61.0,278.8303,12.0,-21.2816,49.0,27.7184,7.06291e-06,1.80194,0.0,4.10304,19.8941,1.91929
278.0,54.0,278.6303,5.0,-22.7045,49.0,26.2955,2.52034e-06,1.74361,0.0,3.85319,18.8592,1.8395
277.8,63.0,278.43,14.0,-24.0192,49.0,24.9808,8.7376e-07,1.68809,0.0,3.62549,17.9026,1.7646
277.6,64.0,278.23,15.0,-25.2366,49.0,23.7634,2.94235e-07,1.63519,0.0,3.4174,17.0166,1.6942
277.4,57.0,278.03,8.0,-26.3661,49.0,22.6339,9.62241e-08,1.58476,0.0,3.22672,16.1945,1.62794
277.2,55.0,277.8303,6.0,-27.416,49.0,21.584,3.05553e-08,1.53663,0.0,3.05157,15.4303,1.56551
277.1,50.0,277.73,1.0,-27.9134,49.0,21.0866,1.70283e-08,1.51339,0.0,2.9693,15.0683,1.53563