File: XPS/LG4X-result/UT-2-C1s.csv
#No of rows lightened (2D detector)1(if not using 2D detector, value is 1 and can be ignored!)
raw_x,raw_y,corrected x,data-bg,sum_components,bg,sum_fit,C=C,pi-pi*,pi-pi*2,C-C,C-O
295.0,721.0,295.6303,0.0,-669.016,721.0,51.9842,13.4176,30.4158,1.28975,0.828936,6.03205
294.8,759.0,295.43,38.1692,-660.84,720.831,59.9904,13.9134,33.3025,5.61387,0.861334,6.29934
294.6,820.0,295.23,99.5804,-645.316,720.42,75.1032,14.4371,36.6315,16.5539,0.895668,6.58503
294.4,792.0,295.03,72.1591,-623.461,719.841,96.3795,14.991,40.4964,33.0692,0.932096,6.89087
294.2,810.0,294.8303,90.6845,-605.781,719.315,113.535,15.5774,45.0141,44.7535,0.970793,7.21883
294.0,847.0,294.6303,128.338,-602.519,718.662,116.143,16.1989,50.3299,41.0312,1.01195,7.57114
293.8,848.0,294.43,129.985,-610.043,718.015,107.972,16.8583,56.6227,25.4849,1.05578,7.9503
293.6,800.0,294.23,82.6081,-615.538,717.392,101.854,17.5589,64.1096,10.7235,1.10252,8.35916
293.4,795.0,294.03,78.1545,-612.483,716.845,104.362,18.304,73.0482,3.05682,1.15243,8.80097
293.2,808.0,293.8303,91.6193,-602.472,716.381,113.908,19.0976,83.735,0.59032,1.20582,9.27943
293.0,846.0,293.6303,130.314,-588.106,715.686,127.58,19.944,96.4971,0.0772303,1.26299,9.79881
292.8,861.0,293.43,146.07,-570.713,714.93,144.217,20.848,111.674,0.00684495,1.32434,10.364
292.6,865.0,293.23,150.931,-550.294,714.069,163.775,21.8148,129.589,0.000410994,1.39026,10.9808
292.4,880.0,293.03,166.817,-526.713,713.183,186.47,22.8505,150.502,1.6718e-05,1.46122,11.6557
292.2,907.0,292.8303,194.839,-499.706,712.161,212.455,23.9618,174.559,4.60695e-07,1.53777,12.3965
292.0,977.0,292.6303,266.135,-469.155,710.865,241.711,25.1562,201.721,8.60056e-09,1.62048,13.2124
291.8,1001.0,292.43,291.701,-435.33,709.299,273.969,26.4422,231.702,1.08773e-10,1.71006,14.1143
291.6,1034.0,292.23,326.379,-398.958,707.621,308.663,27.8294,263.911,9.31967e-13,1.80727,15.1151
291.4,1109.0,292.03,403.464,-360.639,705.536,344.897,29.3288,297.425,5.40955e-15,1.91301,16.2306
291.2,1106.0,291.8303,402.73,-321.817,703.27,381.454,30.9527,330.993,2.12718e-17,2.0283,17.4799
291.0,1201.0,291.6303,500.13,-284.019,700.87,416.852,32.7153,363.096,5.66671e-20,2.15433,18.8864
290.8,1200.0,291.43,501.743,-248.799,698.257,449.457,34.633,392.052,1.02268e-22,2.29249,20.4797
290.6,1230.0,291.23,534.61,-217.756,695.39,477.633,36.7245,416.168,1.25035e-25,2.44437,22.2967
290.4,1193.0,291.03,500.41,-192.668,692.59,499.922,39.0114,433.913,1.03563e-28,2.61185,24.3852
290.2,1214.0,290.8303,524.22,-174.559,689.78,515.22,41.5188,444.097,5.81115e-32,2.79715,26.8078
290.0,1090.0,290.6303,402.963,-164.1,687.037,522.936,44.2762,446.01,2.20903e-35,3.00289,29.6473
289.8,1159.0,290.43,474.46,-161.455,684.54,523.085,47.3177,439.518,5.68883e-39,3.23217,33.0164
289.6,1166.0,290.23,484.056,-165.625,681.944,516.319,50.684,425.077,9.92494e-43,3.48874,37.0692
289.4,1137.0,290.03,457.718,-175.389,679.282,503.893,54.423,403.674,1.17305e-46,3.7771,42.0194
289.2,1122.0,289.8303,445.29,-189.146,676.71,487.564,58.5917,376.706,9.39258e-51,4.10273,48.1637
289.0,1131.0,289.6303,456.764,-204.777,674.236,469.459,63.2588,345.816,5.09492e-55,4.47233,55.9124
288.8,1134.0,289.43,462.353,-219.71,671.647,451.937,68.5071,312.71,1.87229e-59,4.89418,65.8252
288.6,1152.0,289.23,483.009,-231.526,668.991,437.465,74.4372,278.999,4.66111e-64,5.37862,78.6496
288.4,1189.0,289.03,522.811,-237.66,666.189,428.529,81.1727,246.065,7.86122e-69,5.93864,95.3529
288.2,1166.0,288.8303,502.629,-235.796,663.371,427.575,88.8664,214.981,8.982e-74,6.59083,117.136
288.0,1160.0,288.6303,499.428,-223.607,660.572,436.965,97.7091,186.49,6.95246e-79,7.35655,145.41
287.8,1128.0,288.43,470.231,-198.839,657.769,458.93,107.941,161.008,3.64575e-84,8.26373,181.717
287.6,1219.0,288.23,564.102,-159.426,654.898,495.472,119.869,138.679,1.29514e-89,9.34943,227.575
287.4,1284.0,288.03,632.412,-103.371,651.588,548.217,133.887,119.433,3.11696e-95,10.6637,284.234
287.2,1290.0,287.8303,642.03,-29.7653,647.97,618.204,150.509,103.053,5.08191e-101,12.2754,352.367
287.0,1316.0,287.6303,671.717,61.36,644.283,705.643,170.411,89.2387,5.61313e-107,14.2812,431.712
286.8,1417.0,287.43,776.899,169.611,640.101,809.712,194.496,77.6537,4.20017e-113,16.8207,520.742
286.6,1498.0,287.23,862.514,293.003,635.486,928.489,223.983,67.962,2.12917e-119,20.1009,616.442
286.4,1594.0,287.03,963.72,428.848,630.28,1059.13,260.55,59.8518,7.31201e-126,24.4391,714.287
286.2,1774.0,286.8303,1149.74,574.151,624.257,1198.41,306.544,53.0474,1.70116e-132,30.342,808.475
286.0,1981.0,286.6303,1363.72,726.476,617.283,1343.76,365.338,47.3134,2.68125e-139,38.6576,892.449
285.8,2131.0,286.43,1521.75,885.69,609.249,1494.94,441.942,42.454,2.86294e-146,50.8904,959.652
285.6,2301.0,286.23,1700.82,1056.56,600.18,1656.74,544.131,38.3095,2.07095e-153,69.908,1004.4
285.4,2440.0,286.03,1849.85,1253.67,590.151,1843.82,684.696,34.7506,1.01487e-160,101.688,1022.69
285.2,2742.0,285.8303,2162.96,1511.96,579.039,2091,886.342,31.6739,3.36923e-168,160.129,1012.86
285.0,3093.0,285.6303,2527.06,1913.59,565.935,2479.53,1193.63,28.9963,7.57767e-176,281.103,975.804
284.8,3682.0,285.43,3131.96,2647.65,550.036,3197.68,1707.07,26.6516,1.15458e-183,549.093,914.869
284.6,5026.0,285.23,4497.15,4016.52,528.849,4545.37,2705.19,24.5861,1.19177e-191,980.29,835.306
284.4,7615.0,285.03,7117.92,6515.24,497.082,7012.32,5168.49,22.7566,8.33386e-200,1077.58,743.504
284.2,13816.0,284.8303,13374.8,12829.8,441.234,13271.1,11931.4,21.1281,3.94804e-208,672.443,646.107
284.0,23025.0,284.6303,22686.1,22856.4,338.865,23195.3,22284.9,19.6716,1.26707e-216,341.521,549.214
283.8,22477.0,284.43,22270.4,21748.9,206.604,21955.5,21291.9,18.3633,2.75486e-225,187.483,457.774
283.6,10456.0,284.23,10342,10108.4,113.955,10222.3,9714.29,17.1836,4.05773e-234,115.568,375.268
283.4,3322.0,284.03,3243.47,3345.45,78.5275,3423.98,3026.43,16.1158,4.04901e-243,77.7764,303.657
283.2,1413.0,283.8303,1346.4,1294.07,66.6033,1360.68,1046.23,15.146,2.73714e-252,55.7471,243.556
283.0,794.0,283.6303,733.15,631.499,60.8504,692.35,441.694,14.2624,1.25351e-261,41.855,194.538
282.8,470.0,283.43,412.268,351.348,57.7323,409.08,207.579,13.455,3.88904e-271,32.5547,155.491
282.6,324.0,283.23,268.103,210.342,55.8972,266.239,102.544,12.7151,8.17407e-281,26.0321,124.948
282.4,244.0,283.03,189.376,131.791,54.6244,186.415,51.739,12.0353,1.1639e-290,21.2851,101.356
282.2,213.0,282.8303,159.335,84.9471,53.6647,138.612,26.2275,11.4092,1.12274e-300,17.7245,83.2505
282.0,174.0,282.6303,121.08,55.4798,52.9195,108.399,13.218,10.8313,7.33708e-311,14.9864,69.3637
281.8,161.0,282.43,108.731,36.0963,52.269,88.3653,6.57545,10.2966,3.14e-321,12.8361,58.6571
281.6,129.0,282.23,77.2514,22.701,51.7486,74.4497,3.21216,9.80095,0.0,11.1168,50.3197
281.4,135.0,282.03,83.6871,13.0222,51.3129,64.3351,1.53498,9.34058,0.0,9.72079,43.7387
281.2,118.0,281.8303,67.0732,5.73522,50.9268,56.662,0.715406,8.91218,0.0,8.57184,38.4626
281.0,103.0,281.6303,52.4276,0.0436029,50.5724,50.616,0.324434,8.51283,0.0,7.61499,34.1637
280.8,106.0,281.43,55.7191,-4.58219,50.2809,45.6987,0.142891,8.13995,0.0,6.80972,30.6061
280.6,89.0,281.23,38.9841,-8.41835,50.0159,41.5975,0.0610263,7.79124,0.0,6.12565,27.6196
280.4,82.0,281.03,32.1744,-11.7154,49.8256,38.1102,0.025241,7.46462,0.0,5.53964,25.0807
280.2,74.0,280.8303,24.3418,-14.5577,49.6582,35.1005,0.0100997,7.15826,0.0,5.03382,22.8983
280.0,82.0,280.6303,32.5101,-17.0166,49.4899,32.4733,0.00390595,6.87051,0.0,4.5942,21.0046
279.8,68.0,280.43,18.6174,-19.2236,49.3826,30.159,0.00145888,6.59988,0.0,4.20973,19.3479
279.6,63.0,280.23,13.7436,-21.1511,49.2564,28.1053,0.000525894,6.34503,0.0,3.87155,17.8882
279.4,58.0,280.03,8.81688,-22.9116,49.1831,26.2715,0.000182855,6.10475,0.0,3.57253,16.594
279.2,61.0,279.8303,11.9103,-24.4646,49.0897,24.625,6.12944e-05,5.87795,0.0,3.30684,15.4402
279.0,54.0,279.6303,4.97894,-25.8813,49.0211,23.1398,1.97992e-05,5.66362,0.0,3.06971,14.4064
278.8,49.0,279.43,0.0,-27.2059,49.0,21.7941,6.16046e-06,5.46086,0.0,2.8572,13.476
278.6,53.0,279.23,4.0,-28.4298,49.0,20.5702,1.84571e-06,5.26886,0.0,2.66601,12.6353
278.4,53.0,279.03,4.0,-29.547,49.0,19.453,5.32306e-07,5.08686,0.0,2.49338,11.8728
278.2,61.0,278.8303,12.0,-30.5701,49.0,18.4299,1.47735e-07,4.91417,0.0,2.33698,11.1788
278.0,54.0,278.6303,5.0,-31.5098,49.0,17.4902,3.94473e-08,4.75018,0.0,2.19485,10.5452
277.8,63.0,278.43,14.0,-32.3754,49.0,16.6246,1.01313e-08,4.59429,0.0,2.06529,9.96499
277.6,64.0,278.23,15.0,-33.1749,49.0,15.8251,2.50226e-09,4.44598,0.0,1.94688,9.43227
277.4,57.0,278.03,8.0,-33.915,49.0,15.085,5.94211e-10,4.30478,0.0,1.83836,8.94189
277.2,55.0,277.8303,6.0,-34.6017,49.0,14.3983,1.35648e-10,4.17022,0.0,1.73867,8.48939
277.1,50.0,277.73,1.0,-34.9268,49.0,14.0732,6.38551e-11,4.1053,0.0,1.69183,8.27611