File: XPS/LG4X-result/UT-3-C1s.csv
#No of rows lightened (2D detector)1(if not using 2D detector, value is 1 and can be ignored!)
raw_x,raw_y,corrected x,data-bg,sum_components,bg,sum_fit,C=C,pi-pi,pi-pi2,C-C,C-O
295.0,721.0,295.6303,0.0,-664.434,721.0,56.5663,16.1452,28.4767,0.631847,0.328619,10.9839
294.8,759.0,295.43,38.1692,-657.635,720.831,63.1962,16.7417,31.1915,3.45428,0.341515,11.4673
294.6,820.0,295.23,99.5804,-644.331,720.42,76.0884,17.3718,34.3242,12.0542,0.355185,11.9831
294.4,792.0,295.03,72.1591,-624.085,719.841,95.7561,18.0381,37.9633,26.8507,0.369695,12.5343
294.2,810.0,294.8303,90.6845,-606.665,719.315,112.65,18.7435,42.2197,38.1776,0.385113,13.1243
294.0,847.0,294.6303,128.338,-603.132,718.662,115.53,19.4912,47.2308,34.6494,0.401518,13.7568
293.8,848.0,294.43,129.985,-609.637,718.015,108.378,20.2845,53.1658,20.0733,0.418996,14.4358
293.6,800.0,294.23,82.6081,-613.008,717.392,104.384,21.1272,60.2297,7.42297,0.437642,15.1661
293.4,795.0,294.03,78.1545,-607.994,716.845,108.851,22.0236,68.6651,1.75215,0.457563,15.953
293.2,808.0,293.8303,91.6193,-597.107,716.381,119.274,22.9783,78.7504,0.263998,0.478878,16.8023
293.0,846.0,293.6303,130.314,-582.651,715.686,133.036,23.9964,90.7912,0.0253902,0.501722,17.7208
292.8,861.0,293.43,146.07,-565.499,714.93,149.431,25.0838,105.103,0.00155871,0.526242,18.7163
292.6,865.0,293.23,150.931,-545.49,714.069,168.579,26.2467,121.982,6.10804e-05,0.55261,19.7974
292.4,880.0,293.03,166.817,-522.47,713.183,190.712,27.4925,141.665,1.52782e-06,0.581014,20.9742
292.2,907.0,292.8303,194.839,-496.191,712.161,215.97,28.8291,164.271,2.43938e-08,0.611671,22.2583
292.0,977.0,292.6303,266.135,-466.542,710.865,244.323,30.2657,189.749,2.48612e-10,0.644826,23.663
291.8,1001.0,292.43,291.701,-433.793,709.299,275.506,31.8123,217.809,1.61734e-12,0.680759,25.2037
291.6,1034.0,292.23,326.379,-398.647,707.621,308.974,33.4807,247.875,6.71604e-15,0.71979,26.8983
291.4,1109.0,292.03,403.464,-361.66,705.536,343.876,35.2838,279.062,1.78017e-17,0.762286,28.7679
291.2,1106.0,291.8303,402.73,-324.204,703.27,379.066,37.2367,310.184,3.01194e-20,0.808672,30.8371
291.0,1201.0,291.6303,500.13,-287.709,700.87,413.162,39.3564,339.811,3.25286e-23,0.859439,33.1351
290.8,1200.0,291.43,501.743,-253.61,698.257,444.647,41.6623,366.373,2.24244e-26,0.915158,35.6962
290.6,1230.0,291.23,534.61,-223.369,695.39,472.021,44.1771,388.305,9.86759e-30,0.976498,38.5617
290.4,1193.0,291.03,500.41,-198.631,692.59,493.959,46.9268,404.207,2.77164e-33,1.04424,41.7809
290.2,1214.0,290.8303,524.22,-180.3,689.78,509.48,49.9414,413.006,4.96934e-37,1.11932,45.4136
290.0,1090.0,290.6303,402.963,-168.957,687.037,518.08,53.2562,414.089,5.68716e-41,1.20284,49.5321
289.8,1159.0,290.43,474.46,-164.726,684.54,519.814,56.9125,407.38,4.15458e-45,1.29612,54.2251
289.6,1166.0,290.23,484.056,-166.633,681.944,515.311,60.9588,393.349,1.93729e-49,1.40074,59.6021
289.4,1137.0,290.03,457.718,-173.559,679.282,505.723,65.4526,372.953,5.76632e-54,1.51864,65.7989
289.2,1122.0,289.8303,445.29,-184.094,676.71,492.616,70.4625,347.516,1.09556e-58,1.65218,72.9857
289.0,1131.0,289.6303,456.764,-196.408,674.236,477.828,76.0707,318.575,1.32865e-63,1.80427,81.3775
288.8,1134.0,289.43,462.353,-208.328,671.647,463.319,82.3764,287.715,1.02854e-68,1.97855,91.2483
288.6,1152.0,289.23,483.009,-217.944,668.991,451.047,89.5004,256.416,5.08237e-74,2.17959,102.951
288.4,1189.0,289.03,522.811,-223.305,666.189,442.884,97.5905,225.939,1.60305e-79,2.41323,116.941
288.2,1166.0,288.8303,502.629,-222.781,663.371,440.59,106.83,197.255,3.22747e-85,2.68699,133.819
288.0,1160.0,288.6303,499.428,-214.721,660.572,445.852,117.446,171.024,4.14776e-91,3.01075,154.371
287.8,1128.0,288.43,470.231,-197.392,657.769,460.377,129.727,147.61,3.40252e-97,3.39765,179.643
287.6,1219.0,288.23,564.102,-168.85,654.898,486.049,144.037,127.127,1.78165e-103,3.86558,211.019
287.4,1284.0,288.03,632.412,-126.484,651.588,525.104,160.847,109.494,5.95499e-110,4.43933,250.324
287.2,1290.0,287.8303,642.03,-67.6393,647.97,580.331,180.765,94.5012,1.2705e-116,5.15426,299.91
287.0,1316.0,287.6303,671.717,10.8901,644.283,655.173,204.591,81.8648,1.73023e-123,6.06239,362.655
286.8,1417.0,287.43,776.899,113.468,640.101,753.569,233.388,71.2712,1.50407e-130,7.2432,441.667
286.6,1498.0,287.23,862.514,243.574,635.486,879.061,268.586,62.4096,8.34578e-138,8.82455,539.24
286.4,1594.0,287.03,963.72,402.173,630.28,1032.45,312.142,54.9931,2.95598e-145,11.0276,654.29
286.2,1774.0,286.8303,1149.74,583.25,624.257,1207.51,366.784,48.7685,6.68302e-153,14.2819,777.672
286.0,1981.0,286.6303,1363.72,769.547,617.283,1386.83,436.414,43.5208,9.64447e-161,19.587,887.308
285.8,2131.0,286.43,1521.75,937.177,609.249,1546.43,526.803,39.0711,8.88423e-169,29.7298,950.822
285.6,2301.0,286.23,1700.82,1078.15,600.18,1678.33,646.866,35.2737,5.22392e-177,52.8281,943.361
285.4,2440.0,286.03,1849.85,1230.31,590.151,1820.46,811.174,32.011,1.96069e-185,109.185,868.086
285.2,2742.0,285.8303,2162.96,1483.54,579.039,2062.58,1045.32,29.1886,4.6974e-194,234.766,753.307
285.0,3093.0,285.6303,2527.06,1949.86,565.935,2515.8,1398.68,26.731,7.18357e-203,460.109,630.278
284.8,3682.0,285.43,3131.96,2726.55,550.036,3276.59,1979.14,24.5777,7.01228e-212,754.552,518.316
284.6,5026.0,285.23,4497.15,3978.39,528.849,4507.24,3067.46,22.6799,4.36932e-221,992.584,424.511
284.4,7615.0,285.03,7117.92,6467.78,497.082,6964.86,5565.41,20.9982,1.73781e-230,1029.49,348.97
284.2,13816.0,284.8303,13374.8,12781.4,441.234,13222.6,12073.8,19.5006,4.41193e-240,840.194,289.092
284.0,23025.0,284.6303,22686.1,22813.3,338.865,23152.2,22346.2,18.1606,7.14972e-250,546.076,241.766
283.8,22477.0,284.43,22270.4,21797.4,206.604,22004,21490.7,16.9566,7.3958e-260,292.138,204.208
283.6,10456.0,284.23,10342,10099.3,113.955,10213.3,9885.19,15.8705,4.88333e-270,138.031,174.177
283.4,3322.0,284.03,3243.47,3421.35,78.5275,3499.88,3270.04,14.8871,2.05818e-280,65.0098,149.942
283.2,1413.0,283.8303,1346.4,1328.59,66.6033,1395.19,1216.26,13.9938,5.53715e-291,34.7389,130.195
283.0,794.0,283.6303,733.15,623.614,60.8504,684.464,535.406,13.1796,9.50876e-302,21.9301,113.948
282.8,470.0,283.43,412.268,329.329,57.7323,387.062,258.572,12.4354,1.04231e-312,15.5984,100.456
282.6,324.0,283.23,268.103,187.644,55.8972,243.541,130.764,11.7533,0.0,11.8734,89.1506
282.4,244.0,283.03,189.376,113.035,54.6244,167.66,67.5215,11.1265,0.0,9.41244,79.5994
282.2,213.0,282.8303,159.335,71.0885,53.6647,124.753,35.0647,10.5491,0.0,7.67233,71.4671
282.0,174.0,282.6303,121.08,46.1095,52.9195,99.0291,18.1335,10.0159,0.0,6.38672,64.4929
281.8,161.0,282.43,108.731,30.4061,52.269,82.6751,9.27487,9.52263,0.0,5.40605,58.4715
281.6,129.0,282.23,77.2514,19.8648,51.7486,71.6134,4.66858,9.06523,0.0,4.63905,53.2405
281.4,135.0,282.03,83.6871,12.3282,51.3129,63.641,2.30404,8.64033,0.0,4.02687,48.6698
281.2,118.0,281.8303,67.0732,6.6141,50.9268,57.5409,1.11165,8.24487,0.0,3.5299,44.6545
281.0,103.0,281.6303,52.4276,2.05696,50.5724,52.6293,0.523145,7.87617,0.0,3.1206,41.1094
280.8,106.0,281.43,55.7191,-1.76507,50.2809,48.5158,0.23969,7.53187,0.0,2.77928,37.965
280.6,89.0,281.23,38.9841,-5.04408,50.0159,44.9718,0.106757,7.20982,0.0,2.49154,35.1637
280.4,82.0,281.03,32.1744,-7.96664,49.8256,41.8589,0.0461645,6.90815,0.0,2.24664,32.658
280.2,74.0,280.8303,24.3418,-10.5691,49.6582,39.0891,0.0193612,6.62516,0.0,2.0364,30.4081
280.0,82.0,280.6303,32.5101,-12.8873,49.4899,36.6025,0.00786818,6.35932,0.0,1.85455,28.3808
279.8,68.0,280.43,18.6174,-15.0262,49.3826,34.3564,0.00309601,6.10928,0.0,1.69615,26.5478
279.6,63.0,280.23,13.7436,-16.9387,49.2564,32.3177,0.00117876,5.87378,0.0,1.55733,24.8854
279.4,58.0,280.03,8.81688,-18.7229,49.1831,30.4603,0.000434006,5.65172,0.0,1.43496,23.3731
279.2,61.0,279.8303,11.9103,-20.3273,49.0897,28.7624,0.000154451,5.4421,0.0,1.32654,21.9936
279.0,54.0,279.6303,4.97894,-21.8151,49.0211,27.2059,5.31027e-05,5.24399,0.0,1.23001,20.7319
278.8,49.0,279.43,0.0,-23.2248,49.0,25.7752,1.7632e-05,5.05656,0.0,1.14368,19.575
278.6,53.0,279.23,4.0,-24.5431,49.0,24.4569,5.65192e-06,4.87905,0.0,1.06617,18.5117
278.4,53.0,279.03,4.0,-25.7607,49.0,23.2393,1.74848e-06,4.71078,0.0,0.996309,17.5322
278.2,61.0,278.8303,12.0,-26.8878,49.0,22.1122,5.21883e-07,4.5511,0.0,0.933117,16.628
278.0,54.0,278.6303,5.0,-27.9332,49.0,21.0668,1.50254e-07,4.39945,0.0,0.87577,15.7916
277.8,63.0,278.43,14.0,-28.9047,49.0,20.0953,4.17173e-08,4.25528,0.0,0.823567,15.0165
277.6,64.0,278.23,15.0,-29.8092,49.0,19.1908,1.11675e-08,4.11812,0.0,0.775909,14.2968
277.4,57.0,278.03,8.0,-30.6529,49.0,18.3471,2.88179e-09,3.98751,0.0,0.732282,13.6274
277.2,55.0,277.8303,6.0,-31.441,49.0,17.559,7.16739e-10,3.86304,0.0,0.692242,13.0037
277.1,50.0,277.73,1.0,-31.8159,49.0,17.1841,3.52521e-10,3.80299,0.0,0.673446,12.7077