File: XPS/LG4X-result/UT-C1s.csv
#No of rows lightened (2D detector)1(if not using 2D detector, value is 1 and can be ignored!)
raw_x,raw_y,corrected x,data-bg,sum_components,bg,sum_fit,bg_shirley_,C=C,pi-pi*,pi-pi2,C-C,C-O,C=O,O-C=O
294.9,41.0578,295.531,-37.3328,21.9366,78.3906,100.327,78.3906,16.5205,0.100147,3.67671e-06,5.21181,0.00447756,0.0584262,0.0412557
294.6,99.5808,295.231,21.2409,23.3945,78.3399,101.734,78.3399,17.4538,0.289667,4.70264e-06,5.53753,0.00479377,0.0632975,0.0454638
294.3,105.41,294.931,27.1646,25.2663,78.2452,103.511,78.2452,18.4684,0.778415,5.02673e-06,5.89513,0.00514478,0.0688084,0.0503557
294.0,128.34,294.6307,50.1986,27.9433,78.1415,106.085,78.1415,19.5742,1.94345,4.49048e-06,6.28895,0.00553594,0.0750768,0.0560897
293.7,115.332,294.331,37.3074,32.1657,78.0248,110.191,78.0248,20.7824,4.50803,3.35244e-06,6.72413,0.00597361,0.0822493,0.0628731
293.4,78.1576,294.031,0.23405,39.1959,77.9235,117.119,77.9235,22.106,9.71518,2.09166e-06,7.20677,0.00646551,0.0905101,0.0709818
293.1,135.943,293.731,58.1006,50.9443,77.8423,128.787,77.8423,23.5602,19.452,1.09065e-06,7.74413,0.00702101,0.100093,0.0807904
292.8,146.074,293.431,68.3612,69.9047,77.7133,147.618,77.7133,25.1629,36.1851,4.75267e-07,8.34496,0.00765162,0.1113,0.0928182
292.5,156.368,293.1307,78.8028,98.7335,77.5654,176.299,77.5654,26.9348,62.5381,1.73083e-07,9.01988,0.00837158,0.124524,0.107804
292.2,194.845,292.831,117.444,139.377,77.401,216.778,77.401,28.9007,100.418,5.26784e-08,9.78184,0.00919871,0.140287,0.126831
291.9,277.908,292.531,200.732,191.863,77.1758,269.039,77.1758,31.09,149.805,1.3399e-08,10.6469,0.0101555,0.159294,0.151544
291.6,326.389,292.231,249.492,253.183,76.8967,330.079,76.8967,33.538,207.632,2.84823e-09,11.635,0.0112707,0.182521,0.184568
291.3,402.61,291.931,326.073,316.881,76.5362,393.417,76.5362,36.2869,267.369,5.05986e-10,12.7713,0.0125817,0.211346,0.230364
291.0,500.145,291.6307,424.002,373.91,76.1429,450.052,76.1429,39.3883,319.873,7.51216e-11,14.0884,0.0141374,0.247779,0.297595
290.7,501.172,291.331,425.495,414.801,75.6767,490.478,75.6767,42.9052,355.546,9.32079e-12,15.6281,0.0160035,0.294863,0.410439
290.4,500.432,291.031,425.248,432.591,75.1834,507.775,75.1834,46.9151,367.168,9.66501e-13,17.4463,0.0182693,0.357419,0.686053
290.1,511.702,290.731,437.011,425.664,74.6907,500.355,74.6907,51.5148,352.277,8.37557e-14,19.6187,0.0210593,0.443643,1.78931
289.8,474.488,290.431,400.242,400.355,74.2463,474.602,74.2463,56.8261,314.018,6.0658e-15,22.2508,0.0245513,0.569677,6.66685
289.5,475.437,290.1307,401.647,373.114,73.7893,446.903,73.7893,63.0035,260.06,3.67134e-16,25.4949,0.0290073,0.78034,23.7454
289.2,445.324,289.831,371.99,366.584,73.3343,439.918,73.3343,70.2464,200.099,1.85704e-17,29.5789,0.0348271,1.26555,65.3589
288.9,461.091,289.531,388.191,389.972,72.9006,462.873,72.9006,78.8149,143.043,7.85022e-19,34.8571,0.0426491,2.91392,130.301
288.6,483.049,289.231,410.603,419.705,72.446,492.151,72.446,89.0534,95.0031,2.77334e-20,41.8982,0.0535552,9.09388,184.603
288.3,489.278,288.931,417.321,425.139,71.9573,497.096,71.9573,101.426,58.6219,8.18817e-22,51.629,0.069582,28.5757,184.816
288.0,499.475,288.6307,428.002,420.826,71.473,492.299,71.473,116.572,33.6072,2.02038e-23,65.5471,0.0967826,74.2514,130.752
287.7,503.651,288.331,432.661,453.496,70.9901,524.486,70.9901,135.385,17.9001,4.1662e-25,85.9872,0.188149,148.304,65.7317
287.4,632.466,288.031,562.013,531.428,70.4535,601.881,70.4535,159.155,8.85787,7.17976e-27,116.356,0.936508,222.193,23.9291
287.1,653.911,287.731,584.085,616.107,69.8264,685.933,69.8264,189.792,4.07243,1.03405e-28,161.141,6.70988,247.665,6.7269
286.8,776.963,287.431,707.817,699.455,69.1456,768.6,69.1456,230.227,1.73952,1.24461e-30,225.392,35.265,205.028,1.8037
286.5,938.115,287.1307,869.772,844.322,68.3433,912.666,68.3433,285.139,0.690325,1.25196e-32,313.4,117.954,126.449,0.689257
286.2,1149.82,286.831,1082.45,1093.63,67.3696,1161,67.3696,362.387,0.254524,1.05246e-34,426.526,245.305,58.75,0.411484
285.9,1413.71,286.531,1347.56,1373.98,66.1511,1440.13,66.1511,475.997,0.0871878,7.39413e-37,560.688,315.659,21.2483,0.29815
285.6,1700.92,286.231,1636.25,1615.53,64.6678,1680.2,64.6678,652.958,0.027748,4.34138e-39,704.625,251.091,6.59648,0.230726
285.3,1944.29,285.931,1881.37,1916.33,62.9258,1979.25,62.9258,950.065,0.00820464,2.13025e-41,840.263,123.571,2.23484,0.184824
285.0,2527.19,285.6307,2466.36,2486.09,60.8316,2546.92,60.8316,1501.04,0.00225391,8.73568e-44,946.022,37.7954,1.0803,0.151733
284.7,3718.74,285.331,3660.67,3695.55,58.065,3753.62,58.065,2684.88,0.000575262,2.99381e-46,1002.49,7.34033,0.709393,0.126974
284.4,7118.09,285.031,7064.5,7045.38,53.5956,7098.97,53.5956,6045.22,0.000136409,8.57458e-49,998.492,1.03073,0.530072,0.107916
284.1,18367.7,284.731,18323.9,18198.9,43.7768,18242.6,43.7768,17263.3,3.0052e-05,2.05241e-51,934.826,0.198541,0.417287,0.0929071
283.8,22270.8,284.431,22248.4,22142.7,22.379,22165.1,22.379,21318.2,6.15111e-06,4.1056e-54,824.025,0.0987407,0.338584,0.0808623
283.5,5804.23,284.1307,5797.91,5931.17,6.31537,5937.49,6.31537,5244.61,1.16972e-06,6.8636e-57,686.134,0.0705532,0.28084,0.0710409
283.2,1346.9,283.831,1344.17,1203.24,2.72992,1205.97,2.72992,660.321,2.06664e-07,9.58934e-60,542.566,0.054191,0.237021,0.0629223
282.9,536.443,283.531,534.719,504.917,1.72349,506.641,1.72349,93.977,3.39231e-08,1.11966e-62,410.638,0.0430953,0.202893,0.0561311
282.6,268.618,283.231,267.306,313.893,1.31225,315.205,1.31225,12.9781,5.17342e-09,1.09257e-65,300.654,0.0351536,0.17575,0.0503909
282.3,167.397,282.931,166.307,217.617,1.08994,218.707,1.08994,1.52282,7.3301e-10,8.90987e-69,215.865,0.029254,0.153781,0.0454939
282.0,121.607,282.6307,120.664,154.738,0.942745,155.681,0.942745,0.143049,9.64923e-11,6.07234e-72,154.394,0.0247425,0.135735,0.0412818
281.7,92.5446,282.331,91.7149,111.934,0.829707,112.764,0.829707,0.0104195,1.18012e-11,3.45862e-75,111.744,0.0212106,0.12072,0.0376318
281.4,84.2233,282.031,83.4732,83.0454,0.750097,83.7955,0.750097,0.00057718,1.34094e-12,1.64631e-78,82.8839,0.0183912,0.108087,0.0344477
281.1,66.8019,281.731,66.1213,63.5949,0.680619,64.2755,0.680619,2.40076e-05,1.41561e-13,6.54911e-82,63.4498,0.0161033,0.0973539,0.0316531
280.8,56.2652,281.431,55.6396,50.3125,0.625616,50.9381,0.625616,7.43214e-07,1.38844e-14,2.17728e-85,50.181,0.0142201,0.0881551,0.0291867
280.5,32.635,281.1307,32.0557,40.9855,0.579315,41.5648,0.579315,1.70148e-08,1.26521e-15,6.04936e-89,40.8656,0.012651,0.0802095,0.0269988
280.2,24.8977,280.831,24.3496,34.2036,0.548028,34.7516,0.548028,2.86685e-10,1.07115e-16,1.40464e-92,34.0939,0.0113294,0.0732981,0.0250489
279.9,13.1343,280.531,12.6152,29.0964,0.519101,29.6155,0.519101,3.54471e-12,8.42531e-18,2.72574e-96,28.9956,0.0102056,0.0672478,0.0233036
279.6,14.3092,280.231,13.8098,25.1291,0.499432,25.6286,0.499432,3.15284e-14,6.15705e-19,4.42044e-100,25.0362,0.00924189,0.0619205,0.0217351
279.3,23.4319,279.931,22.9448,21.9676,0.487108,22.4547,0.487108,0.0,4.18033e-20,5.99111e-104,21.8817,0.00840905,0.057205,0.0203202
279.0,5.55436,279.6307,5.08395,19.3957,0.470415,19.8661,0.470415,0.0,2.63693e-21,6.78597e-108,19.316,0.00768433,0.0530107,0.0190395
278.7,6.60291,279.331,6.13754,17.2685,0.465371,17.7339,0.465371,0.0,1.54538e-22,6.4236e-112,17.1943,0.00704974,0.0492631,0.0178765
278.4,4.65042,279.031,4.19046,15.4849,0.459958,15.9449,0.459958,0.0,8.41444e-24,5.08167e-116,15.4157,0.00649088,0.0459008,0.0168171
278.1,0.712455,278.731,0.259917,13.9721,0.452538,14.4247,0.452538,0.0,4.25661e-25,3.35967e-120,13.9074,0.00599614,0.0428725,0.0158494
277.8,14.7862,278.431,14.3396,12.6764,0.446693,13.1231,0.446693,0.0,2.00057e-26,1.8563e-124,12.6158,0.00555603,0.0401353,0.0149631
277.5,18.9229,278.1307,18.491,11.5571,0.43194,11.989,0.43194,0.0,8.73564e-28,8.57163e-129,11.5001,0.00516277,0.0376528,0.0141492
277.2,6.98735,277.831,6.56441,10.5827,0.422937,11.0057,0.422937,0.0,3.54393e-29,3.3078e-133,10.5291,0.00480994,0.0353944,0.0134001
277.0,0.0,277.6307,-0.42028,10.0014,0.42028,10.4217,0.42028,0.0,4.01664e-30,3.41894e-136,9.94991,0.00459448,0.0340002,0.0129333