File: XPS/LG4X-result/UT-O1s.csv
#No of rows lightened (2D detector)1(if not using 2D detector, value is 1 and can be ignored!),,,,,,,
raw_x,raw_y,corrected x,data-bg,sum_components,bg,sum_fit,bg_shirley_,C-O
540,7866,540.6485,-135.607,13.1956,8001.61,8014.8,8001.61,13.1956
539.8,8033,540.4485,31.531,13.9196,8001.47,8015.39,8001.47,13.9196
539.6,8037,540.2485,35.9037,14.7057,8001.1,8015.8,8001.1,14.7057
539.4,7958,540.0485,-42.6565,15.5614,8000.66,8016.22,8000.66,15.5614
539.2,7982,539.8485,-18.3541,16.4953,8000.35,8016.85,8000.35,16.4953
539,8056,539.6485,55.9888,17.5174,8000.01,8017.53,8000.01,17.5174
538.8,7910,539.4485,-89.6151,18.6394,7999.62,8018.25,7999.62,18.6394
538.6,7940,539.2485,-59.3915,19.8751,7999.39,8019.27,7999.39,19.8751
538.4,8021,539.0485,21.962,21.2407,7999.04,8020.28,7999.04,21.2407
538.2,7835,538.8485,-163.724,22.7556,7998.72,8021.48,7998.72,22.7556
538,8061,538.6485,62.4902,24.4431,7998.51,8022.95,7998.51,24.4431
537.8,7957,538.4485,-41.1147,26.3312,7998.11,8024.45,7998.11,26.3312
537.6,8099,538.2485,101.23,28.4543,7997.77,8026.22,7997.77,28.4543
537.4,7976,538.0485,-21.4385,30.8548,7997.44,8028.29,7997.44,30.8548
537.2,8048,537.8485,50.8916,33.5854,7997.11,8030.69,7997.11,33.5854
537,7977,537.6485,-19.608,36.7133,7996.61,8033.32,7996.61,36.7133
536.8,7945,537.4485,-51.395,40.3248,7996.4,8036.72,7996.4,40.3248
536.6,8015,537.2485,18.7637,44.5341,7996.24,8040.77,7996.24,44.5341
536.4,8033,537.0485,37.3035,49.496,7995.7,8045.19,7995.7,49.496
536.2,8034,536.8485,38.7528,55.4283,7995.25,8050.68,7995.25,55.4283
536,7961,536.6485,-33.9607,62.6507,7994.96,8057.61,7994.96,62.6507
535.8,8006,536.4485,11.3172,71.653,7994.68,8066.34,7994.68,71.653
535.6,8110,536.2485,115.763,83.2159,7994.24,8077.45,7994.24,83.2159
535.4,8128,536.0485,134.31,98.6158,7993.69,8092.31,7993.69,98.6158
535.2,8308,535.8485,314.85,119.957,7993.15,8113.11,7993.15,119.957
535,8245,535.6485,252.715,150.668,7992.29,8142.95,7992.29,150.668
534.8,8186,535.4485,194.507,196.166,7991.49,8187.66,7991.49,196.166
534.6,8202,535.2485,211.285,264.608,7990.71,8255.32,7990.71,264.608
534.4,8397,535.0485,407.183,367.511,7989.82,8357.33,7989.82,367.511
534.2,8483,534.8485,494.23,519.81,7988.77,8508.58,7988.77,519.81
534,8699,534.6485,711.592,738.814,7987.41,8726.22,7987.41,738.814
533.8,9084,534.4485,1098.54,1041.49,7985.46,9026.95,7985.46,1041.49
533.6,9296,534.2485,1313.4,1439.9,7982.6,9422.5,7982.6,1439.9
533.4,9786,534.0485,1806.88,1935.23,7979.12,9914.35,7979.12,1935.23
533.2,10565,533.8485,2590.36,2511.89,7974.64,10486.5,7974.64,2511.89
533,11039,533.6485,3070.35,3133.9,7968.65,11102.6,7968.65,3133.9
532.8,11764,533.4485,3802.51,3745.79,7961.49,11707.3,7961.49,3745.79
532.6,12379,533.2485,4426.13,4279.43,7952.87,12232.3,7952.87,4279.43
532.4,12490,533.0485,4546.88,4666.25,7943.12,12609.4,7943.12,4666.25
532.2,12807,532.8485,4873.99,4851.82,7933.01,12784.8,7933.01,4851.82
532,12624,532.6485,4701.54,4808.78,7922.46,12731.2,7922.46,4808.78
531.8,12428,532.4485,4515.59,4543.53,7912.41,12455.9,7912.41,4543.53
531.6,11909,532.2485,4006.05,4094.71,7902.95,11997.7,7902.95,4094.71
531.4,11479,532.0485,3584.4,3523.68,7894.6,11418.3,7894.6,3523.68
531.2,10875,531.8485,2987.85,2900.54,7887.15,10787.7,7887.15,2900.54
531,10279,531.6485,2397.76,2289.86,7881.24,10171.1,7881.24,2289.86
530.8,9588,531.4485,1711.6,1740.36,7876.4,9616.76,7876.4,1740.36
530.6,9219,531.2485,1346.02,1280.24,7872.98,9153.23,7872.98,1280.24
530.4,8717,531.0485,846.595,918.275,7870.41,8788.68,7870.41,918.275
530.2,8533,530.8485,664.151,648.49,7868.85,8517.34,7868.85,648.49
530,8363,530.6485,495.463,456.362,7867.54,8323.9,7867.54,456.362
529.8,8203,530.4485,336.443,324.358,7866.56,8190.91,7866.56,324.358
529.6,7997,530.2485,130.995,235.835,7866.01,8101.84,7866.01,235.835
529.4,7961,530.0485,95.4656,177.078,7865.53,8042.61,7865.53,177.078
529.2,8002,529.8485,136.707,137.867,7865.29,8003.16,7865.29,137.867
529,7930,529.6485,65.0513,111.149,7864.95,7976.1,7864.95,111.149
528.8,7886,529.4485,21.2302,92.3327,7864.77,7957.1,7864.77,92.3327
528.6,7991,529.2485,126.392,78.5517,7864.61,7943.16,7864.61,78.5517
528.4,7961,529.0485,96.6445,68.0576,7864.36,7932.41,7864.36,68.0576
528.2,7809,528.8485,-55.2372,59.7891,7864.24,7924.03,7864.24,59.7891
528,7964,528.6485,99.7107,53.0924,7864.29,7917.38,7864.29,53.0924
527.8,7834,528.4485,-30.1242,47.5516,7864.12,7911.68,7864.12,47.5516
527.6,7921,528.2485,56.8738,42.8909,7864.13,7907.02,7864.13,42.8909
527.4,8051,528.0485,187.049,38.9193,7863.95,7902.87,7863.95,38.9193
527.2,7970,527.8485,106.45,35.4992,7863.55,7899.05,7863.55,35.4992
527,7855,527.6485,-8.40101,32.5279,7863.4,7895.93,7863.4,32.5279
526.8,7969,527.4485,105.78,29.927,7863.22,7893.15,7863.22,29.927
526.6,7820,527.2485,-43.1485,27.6352,7863.15,7890.78,7863.15,27.6352
526.4,7922,527.0485,58.8473,25.6039,7863.15,7888.76,7863.15,25.6039
526.2,7966,526.8485,103.079,23.794,7862.92,7886.71,7862.92,23.794
526,7892,526.6485,29.186,22.1737,7862.81,7884.99,7862.81,22.1737
525.8,7904,526.4485,41.3022,20.7168,7862.7,7883.41,7862.7,20.7168
525.6,7725,526.2485,-137.686,19.4015,7862.69,7882.09,7862.69,19.4015
525.4,7907,526.0485,44.0171,18.2099,7862.98,7881.19,7862.98,18.2099
525.2,7872,525.8485,9.0938,17.1265,7862.91,7880.03,7862.91,17.1265
525,7838,525.6485,-24.9285,16.1384,7862.93,7879.07,7862.93,16.1384