File: XPS/LG4X-result/UT-O1s_nobg.csv
#No of rows lightened (2D detector)1(if not using 2D detector, value is 1 and can be ignored!)
raw_x,raw_y,corrected x,data-bg,sum_components,bg,sum_fit,bg_shirley_,C_1
540.0,31.0,540.6482,-125.123,12.2904,156.123,168.413,156.123,12.2904
539.8,198.0,540.448,41.8769,12.9657,156.123,169.089,156.123,12.9657
539.6,202.0,540.2482,45.8769,13.6991,156.123,169.822,156.123,13.6991
539.4,123.0,540.0482,-33.1231,14.4976,156.123,170.621,156.123,14.4976
539.2,147.0,539.8482,-9.12309,15.3691,156.123,171.492,156.123,15.3691
539.0,221.0,539.6482,64.8769,16.3232,156.123,172.446,156.123,16.3232
538.8,75.0,539.448,-81.1231,17.3708,156.123,173.494,156.123,17.3708
538.6,105.0,539.2482,-51.1231,18.5248,156.123,174.648,156.123,18.5248
538.4,186.0,539.0482,29.8769,19.8004,156.123,175.924,156.123,19.8004
538.2,0.0,538.8482,-156.123,21.216,156.123,177.339,156.123,21.216
538.0,226.302,538.6482,70.1787,22.7933,156.123,178.916,156.123,22.7933
537.8,122.608,538.448,-33.5149,24.5588,156.123,180.682,156.123,24.5588
537.6,264.977,538.2482,108.854,26.545,156.123,182.668,156.123,26.545
537.4,142.228,538.0482,-13.8951,28.7917,156.123,184.915,156.123,28.7917
537.2,214.558,537.8482,58.4348,31.349,156.123,187.472,156.123,31.349
537.0,143.961,537.6482,-12.1625,34.2805,156.123,190.404,156.123,34.2805
536.8,112.16,537.448,-43.9635,37.6684,156.123,193.791,156.123,37.6684
536.6,182.359,537.2482,26.2358,41.6218,156.123,197.745,156.123,41.6218
536.4,200.829,537.0482,44.7063,46.2899,156.123,202.413,156.123,46.2899
536.2,202.224,536.8482,46.1013,51.8846,156.123,208.008,156.123,51.8846
536.0,129.465,536.6482,-26.6581,58.7206,156.123,214.844,156.123,58.7206
535.8,174.748,536.448,18.6245,67.2865,156.123,223.41,156.123,67.2865
535.6,279.184,536.2482,123.061,78.371,156.123,234.494,156.123,78.371
535.4,297.662,536.0482,141.539,93.2765,156.123,249.4,156.123,93.2765
535.2,478.203,535.8482,322.08,114.163,156.123,270.286,156.123,114.163
535.0,415.894,535.6482,259.771,144.559,156.123,300.682,156.123,144.559
534.8,357.532,535.448,201.409,190.034,156.123,346.157,156.123,190.034
534.6,374.191,535.2482,218.068,258.947,156.123,415.07,156.123,258.947
534.4,570.016,535.0482,413.893,363.033,156.123,519.157,156.123,363.033
534.2,656.913,534.8482,500.789,517.399,156.123,673.522,156.123,517.399
534.0,874.104,534.6482,717.981,739.377,156.123,895.5,156.123,739.377
533.8,1260.82,534.448,1104.69,1045.72,156.123,1201.84,156.123,1045.72
533.6,1475.16,534.2482,1319.04,1447.97,156.123,1604.1,156.123,1447.97
533.4,1968.1,534.0482,1811.97,1946.54,156.123,2102.66,156.123,1946.54
533.2,2750.92,533.8482,2594.8,2524.98,156.123,2681.1,156.123,2524.98
533.0,3229.78,533.6482,3073.66,3146.59,156.123,3302.71,156.123,3146.59
532.8,3960.65,533.448,3804.53,3755.64,156.123,3911.76,156.123,3755.64
532.6,4582.61,533.2482,4426.48,4284.34,156.123,4440.47,156.123,4284.34
532.4,4701.23,533.0482,4545.11,4665,156.123,4821.12,156.123,4665
532.2,5026.23,532.8482,4870.11,4844.38,156.123,5000.5,156.123,4844.38
532.0,4851.37,532.6482,4695.25,4796.21,156.123,4952.33,156.123,4796.21
531.8,4663.14,532.448,4507.02,4527.61,156.123,4683.74,156.123,4527.61
531.6,4151.34,532.2482,3995.22,4077.36,156.123,4233.49,156.123,4077.36
531.4,3727.74,532.0482,3571.61,3506.47,156.123,3662.59,156.123,3506.47
531.2,3129.38,531.8482,2973.26,2884.38,156.123,3040.5,156.123,2884.38
531.0,2537.86,531.6482,2381.73,2275.06,156.123,2431.18,156.123,2275.06
530.8,1850.49,531.448,1694.36,1726.78,156.123,1882.9,156.123,1726.78
530.6,1484.16,531.2482,1328.04,1267.6,156.123,1423.72,156.123,1267.6
530.4,984.138,531.0482,828.015,906.322,156.123,1062.44,156.123,906.322
530.2,801.468,530.8482,645.345,637.115,156.123,793.238,156.123,637.115
530.0,632.618,530.6482,476.495,445.591,156.123,601.714,156.123,445.591
529.8,473.521,530.448,317.398,314.293,156.123,470.416,156.123,314.293
529.6,268.077,530.2482,111.954,226.582,156.123,382.704,156.123,226.582
529.4,232.642,530.0482,76.519,168.703,156.123,324.825,156.123,168.703
529.2,274.063,529.8482,117.941,130.379,156.123,286.501,156.123,130.379
529.0,202.518,529.6482,46.3951,104.506,156.123,260.629,156.123,104.506
528.8,158.858,529.448,2.73536,86.4595,156.123,242.582,156.123,86.4595
528.6,264.246,529.2482,108.124,73.357,156.123,229.48,156.123,73.357
528.4,234.65,529.0482,78.5272,63.4493,156.123,219.572,156.123,63.4493
528.2,82.9013,528.8482,-73.2212,55.6823,156.123,211.805,156.123,55.6823
528.0,238.148,528.6482,82.0254,49.4132,156.123,205.536,156.123,49.4132
527.8,108.445,528.448,-47.6774,44.2375,156.123,200.36,156.123,44.2375
527.6,195.703,528.2482,39.5807,39.89,156.123,196.013,156.123,39.89
527.4,326.116,528.0482,169.993,36.1887,156.123,192.311,156.123,36.1887
527.2,245.615,527.8482,89.492,33.0033,156.123,189.126,156.123,33.0033
527.0,130.908,527.6482,-25.2145,30.2372,156.123,186.36,156.123,30.2372
526.8,245.32,527.448,89.1973,27.8167,156.123,183.939,156.123,27.8167
526.6,96.5411,527.2482,-59.5815,25.6845,156.123,181.807,156.123,25.6845
526.4,198.807,527.0482,42.6845,23.7951,156.123,179.918,156.123,23.7951
526.2,243.231,526.8482,87.1084,22.1119,156.123,178.234,156.123,22.1119
526.0,169.511,526.6482,13.3886,20.6052,156.123,176.728,156.123,20.6052
525.8,181.834,526.448,25.7117,19.2506,156.123,175.373,156.123,19.2506
525.6,3.0,526.2482,-153.123,18.0279,156.123,174.15,156.123,18.0279
525.4,185.0,526.0482,28.8775,16.9202,156.123,173.043,156.123,16.9202
525.2,150.0,525.8482,-6.12255,15.9132,156.123,172.036,156.123,15.9132
525.0,116.0,525.6482,-40.1225,14.9949,156.123,171.117,156.123,14.9949