File: XPS/LG4X-result/UT-O1s_no_bg.csv
#No of rows lightened (2D detector)1(if not using 2D detector, value is 1 and can be ignored!)
raw_x,raw_y,corrected x,data-bg,sum_components,bg,sum_fit,C_1
540.0,31.0,540.6482,31.0,40.0531,0.0,40.0531,40.0531
539.9,155.0,540.5482,155.0,41.1103,0.0,41.1103,41.1103
539.8,198.0,540.448,198.0,42.2103,0.0,42.2103,42.2103
539.7,208.0,540.3482,208.0,43.3552,0.0,43.3552,43.3552
539.6,202.0,540.2482,202.0,44.5477,0.0,44.5477,44.5477
539.5,267.0,540.1482,267.0,45.7904,0.0,45.7904,45.7904
539.4,123.0,540.0482,123.0,47.0862,0.0,47.0862,47.0862
539.3,217.0,539.948,217.0,48.4382,0.0,48.4382,48.4382
539.2,147.0,539.8482,147.0,49.8497,0.0,49.8497,49.8497
539.1,231.0,539.7482,231.0,51.3243,0.0,51.3243,51.3243
539.0,221.0,539.6482,221.0,52.8658,0.0,52.8658,52.8658
538.9,207.0,539.5482,207.0,54.4784,0.0,54.4784,54.4784
538.8,75.0,539.448,75.0,56.1665,0.0,56.1665,56.1665
538.7,191.0,539.3482,191.0,57.935,0.0,57.935,57.935
538.6,105.0,539.2482,105.0,59.7892,0.0,59.7892,59.7892
538.5,283.0,539.1482,283.0,61.7346,0.0,61.7346,61.7346
538.4,186.0,539.0482,186.0,63.7774,0.0,63.7774,63.7774
538.3,165.0,538.948,165.0,65.9244,0.0,65.9244,65.9244
538.2,0.0,538.8482,0.0,68.1828,0.0,68.1828,68.1828
538.1,257.105,538.7482,257.105,70.5605,0.0,70.5605,70.5605
538.0,226.302,538.6482,226.302,73.0662,0.0,73.0662,73.0662
537.9,201.476,538.5482,201.476,75.7093,0.0,75.7093,75.7093
537.8,122.608,538.448,122.608,78.5003,0.0,78.5003,78.5003
537.7,258.764,538.3482,258.764,81.4504,0.0,81.4504,81.4504
537.6,264.977,538.2482,264.977,84.5722,0.0,84.5722,84.5722
537.5,104.128,538.1482,104.128,87.8794,0.0,87.8794,87.8794
537.4,142.228,538.0482,142.228,91.3873,0.0,91.3873,91.3873
537.3,226.378,537.948,226.378,95.1127,0.0,95.1127,95.1127
537.2,214.558,537.8482,214.558,99.0743,0.0,99.0743,99.0743
537.1,314.774,537.7482,314.774,103.293,0.0,103.293,103.293
537.0,143.961,537.6482,143.961,107.791,0.0,107.791,107.791
536.9,116.067,537.5482,116.067,112.595,0.0,112.595,112.595
536.8,112.16,537.448,112.16,117.734,0.0,117.734,117.734
536.7,97.2449,537.3482,97.2449,123.24,0.0,123.24,123.24
536.6,182.359,537.2482,182.359,129.15,0.0,129.15,129.15
536.5,385.59,537.1482,385.59,135.505,0.0,135.505,135.505
536.4,200.829,537.0482,200.829,142.352,0.0,142.352,142.352
536.3,283.027,536.948,283.027,149.745,0.0,149.745,149.745
536.2,202.224,536.8482,202.224,157.745,0.0,157.745,157.745
536.1,129.359,536.7482,129.359,166.422,0.0,166.422,166.422
536.0,129.465,536.6482,129.465,175.858,0.0,175.858,175.858
535.9,194.597,536.5482,194.597,186.147,0.0,186.147,186.147
535.8,174.748,536.448,174.748,197.397,0.0,197.397,197.397
535.7,307.944,536.3482,307.944,209.738,0.0,209.738,209.738
535.6,279.184,536.2482,279.184,223.321,0.0,223.321,223.321
535.5,298.419,536.1482,298.419,238.325,0.0,238.325,238.325
535.4,297.662,536.0482,297.662,254.964,0.0,254.964,254.964
535.3,275.896,535.948,275.896,273.492,0.0,273.492,273.492
535.2,478.203,535.8482,478.203,294.217,0.0,294.217,294.217
535.1,400.561,535.7482,400.561,317.509,0.0,317.509,317.509
535.0,415.894,535.6482,415.894,343.818,0.0,343.818,343.818
534.9,396.225,535.5482,396.225,373.688,0.0,373.688,373.688
534.8,357.532,535.448,357.532,407.777,0.0,407.777,407.777
534.7,442.858,535.3482,442.858,446.882,0.0,446.882,446.882
534.6,374.191,535.2482,374.191,491.96,0.0,491.96,491.96
534.5,539.564,535.1482,539.564,544.15,0.0,544.15,544.15
534.4,570.016,535.0482,570.016,604.798,0.0,604.798,604.798
534.3,486.447,534.948,486.447,675.462,0.0,675.462,675.462
534.2,656.913,534.8482,656.913,757.915,0.0,757.915,757.915
534.1,696.464,534.7482,696.464,854.128,0.0,854.128,854.128
534.0,874.104,534.6482,874.104,966.219,0.0,966.219,966.219
533.9,1033.88,534.5482,1033.88,1096.37,0.0,1096.37,1096.37
533.8,1260.82,534.448,1260.82,1246.73,0.0,1246.73,1246.73
533.7,1504.94,534.3482,1504.94,1419.2,0.0,1419.2,1419.2
533.6,1475.16,534.2482,1475.16,1615.27,0.0,1615.27,1615.27
533.5,1883.53,534.1482,1883.53,1835.76,0.0,1835.76,1835.76
533.4,1968.1,534.0482,1968.1,2080.56,0.0,2080.56,2080.56
533.3,2328.85,533.948,2328.85,2348.36,0.0,2348.36,2348.36
533.2,2750.92,533.8482,2750.92,2636.4,0.0,2636.4,2636.4
533.1,2971.25,533.7482,2971.25,2940.34,0.0,2940.34,2940.34
533.0,3229.78,533.6482,3229.78,3254.2,0.0,3254.2,3254.2
532.9,3609.57,533.5482,3609.57,3570.36,0.0,3570.36,3570.36
532.8,3960.65,533.448,3960.65,3879.88,0.0,3879.88,3879.88
532.7,4261,533.3482,4261,4172.81,0.0,4172.81,4172.81
532.6,4582.61,533.2482,4582.61,4438.75,0.0,4438.75,4438.75
532.5,4715.4,533.1482,4715.4,4667.47,0.0,4667.47,4667.47
532.4,4701.23,533.0482,4701.23,4849.61,0.0,4849.61,4849.61
532.3,4950.17,532.948,4950.17,4977.37,0.0,4977.37,4977.37
532.2,5026.23,532.8482,5026.23,5045.09,0.0,5045.09,5045.09
532.1,5045.34,532.7482,5045.34,5049.71,0.0,5049.71,5049.71
532.0,4851.37,532.6482,4851.37,4991.03,0.0,4991.03,4991.03
531.9,4775.3,532.5482,4775.3,4871.7,0.0,4871.7,4871.7
531.8,4663.14,532.448,4663.14,4697.02,0.0,4697.02,4697.02
531.7,4420.84,532.3482,4420.84,4474.51,0.0,4474.51,4474.51
531.6,4151.34,532.2482,4151.34,4213.36,0.0,4213.36,4213.36
531.5,3908.62,532.1482,3908.62,3923.7,0.0,3923.7,3923.7
531.4,3727.74,532.0482,3727.74,3615.95,0.0,3615.95,3615.95
531.3,3493.68,531.948,3493.68,3300.17,0.0,3300.17,3300.17
531.2,3129.38,531.8482,3129.38,2985.48,0.0,2985.48,2985.48
531.1,2659.74,531.7482,2659.74,2679.68,0.0,2679.68,2679.68
531.0,2537.86,531.6482,2537.86,2389.02,0.0,2389.02,2389.02
530.9,2258.81,531.5482,2258.81,2118.08,0.0,2118.08,2118.08
530.8,1850.49,531.448,1850.49,1869.82,0.0,1869.82,1869.82
530.7,1611.9,531.3482,1611.9,1645.77,0.0,1645.77,1645.77
530.6,1484.16,531.2482,1484.16,1446.18,0.0,1446.18,1446.18
530.5,1194.25,531.1482,1194.25,1270.36,0.0,1270.36,1270.36
530.4,984.138,531.0482,984.138,1116.91,0.0,1116.91,1116.91
530.3,738.84,530.948,738.84,983.95,0.0,983.95,983.95
530.2,801.468,530.8482,801.468,869.371,0.0,869.371,869.371
530.1,694.077,530.7482,694.077,770.986,0.0,770.986,770.986
530.0,632.618,530.6482,632.618,686.661,0.0,686.661,686.661
529.9,554.102,530.5482,554.102,614.4,0.0,614.4,614.4
529.8,473.521,530.448,473.521,552.399,0.0,552.399,552.399
529.7,311.841,530.3482,311.841,499.069,0.0,499.069,499.069
529.6,268.077,530.2482,268.077,453.033,0.0,453.033,453.033
529.5,442.366,530.1482,442.366,413.124,0.0,413.124,413.124
529.4,232.642,530.0482,232.642,378.36,0.0,378.36,378.36
529.3,263.844,529.948,263.844,347.921,0.0,347.921,347.921
529.2,274.063,529.8482,274.063,321.132,0.0,321.132,321.132
529.1,319.305,529.7482,319.305,297.431,0.0,297.431,297.431
529.0,202.518,529.6482,202.518,276.358,0.0,276.358,276.358
528.9,236.697,529.5482,236.697,257.531,0.0,257.531,257.531
528.8,158.858,529.448,158.858,240.635,0.0,240.635,240.635
528.7,265.031,529.3482,265.031,225.408,0.0,225.408,225.408
528.6,264.246,529.2482,264.246,211.63,0.0,211.63,211.63
528.5,245.454,529.1482,245.454,199.119,0.0,199.119,199.119
528.4,234.65,529.0482,234.65,187.718,0.0,187.718,187.718
528.3,149.806,528.948,149.806,177.297,0.0,177.297,177.297
528.2,82.9013,528.8482,82.9013,167.744,0.0,167.744,167.744
528.1,141.993,528.7482,141.993,158.962,0.0,158.962,158.962
528.0,238.148,528.6482,238.148,150.868,0.0,150.868,150.868
527.9,191.323,528.5482,191.323,143.391,0.0,143.391,143.391
527.8,108.445,528.448,108.445,136.468,0.0,136.468,136.468
527.7,164.556,528.3482,164.556,130.044,0.0,130.044,130.044
527.6,195.703,528.2482,195.703,124.072,0.0,124.072,124.072
527.5,244.883,528.1482,244.883,118.51,0.0,118.51,118.51
527.4,326.116,528.0482,326.116,113.32,0.0,113.32,113.32
527.3,326.381,527.948,326.381,108.469,0.0,108.469,108.469
527.2,245.615,527.8482,245.615,103.928,0.0,103.928,103.928
527.1,171.785,527.7482,171.785,99.6705,0.0,99.6705,99.6705
527.0,130.908,527.6482,130.908,95.673,0.0,95.673,95.673
526.9,317.091,527.5482,317.091,91.9145,0.0,91.9145,91.9145
526.8,245.32,527.448,245.32,88.3761,0.0,88.3761,88.3761
526.7,100.461,527.3482,100.461,85.0406,0.0,85.0406,85.0406
526.6,96.5411,527.2482,96.5411,81.8928,0.0,81.8928,81.8928
526.5,178.653,527.1482,178.653,78.9186,0.0,78.9186,78.9186
526.4,198.807,527.0482,198.807,76.1052,0.0,76.1052,76.1052
526.3,299.01,526.948,299.01,73.4413,0.0,73.4413,73.4413
526.2,243.231,526.8482,243.231,70.9163,0.0,70.9163,70.9163
526.1,137.386,526.7482,137.386,68.5205,0.0,68.5205,68.5205
526.0,169.511,526.6482,169.511,66.2453,0.0,66.2453,66.2453
525.9,220.67,526.5482,220.67,64.0826,0.0,64.0826,64.0826
525.8,181.834,526.448,181.834,62.0251,0.0,62.0251,62.0251
525.7,110.954,526.3482,110.954,60.0659,0.0,60.0659,60.0659
525.6,3.0,526.2482,3.0,58.1989,0.0,58.1989,58.1989
525.5,0.0,526.1482,0.0,56.4183,0.0,56.4183,56.4183
525.4,185.0,526.0482,185.0,54.7188,0.0,54.7188,54.7188
525.3,169.0,525.948,169.0,53.0955,0.0,53.0955,53.0955
525.2,150.0,525.8482,150.0,51.5439,0.0,51.5439,51.5439
525.1,111.0,525.7482,111.0,50.0599,0.0,50.0599,50.0599
525.0,116.0,525.6482,116.0,48.6394,0.0,48.6394,48.6394