File: XPS/HT-C1s.csv
#No of rows lightened (2D detector)1(if not using 2D detector, value is 1 and can be ignored!)
x,raw_y,data-bg,sum_components,bg,sum_fit,bg_shirley_,a1,v2,v3
299.5,852.0,96.8913,169.224,755.109,924.333,755.109,21.8918,21.0697,126.263
299.3,922.0,170.457,180.468,751.543,932.011,751.543,22.698,21.9823,135.788
299.1,925.0,177.118,192.851,747.882,940.733,747.882,23.5495,22.9551,146.347
298.9,950.0,205.96,206.52,744.04,950.561,744.04,24.4499,23.9934,158.077
298.7,951.0,210.817,221.644,740.183,961.827,740.183,25.4029,25.1031,171.139
298.5,986.0,249.767,238.416,736.233,974.65,736.233,26.4127,26.2909,185.713
298.3,1008.0,275.797,257.054,732.203,989.257,732.203,27.484,27.5643,202.005
298.1,1047.0,318.927,277.802,728.073,1005.88,728.073,28.6217,28.9316,220.249
297.9,999.0,275.13,300.935,723.87,1024.81,723.87,29.8317,30.4022,240.701
297.7,1084.0,364.282,326.75,719.718,1046.47,719.718,31.12,31.9865,263.644
297.5,1048.0,332.548,355.565,715.452,1071.02,715.452,32.4936,33.6965,289.375
297.3,1067.0,355.872,387.703,711.128,1098.83,711.128,33.9602,35.5458,318.197
297.1,1120.0,413.221,423.471,706.779,1130.25,706.779,35.5284,37.5495,350.393
296.9,1123.0,420.793,463.119,702.207,1165.33,702.207,37.2078,39.7253,386.186
296.7,1151.0,453.38,506.784,697.62,1204.4,697.62,39.0092,42.093,425.682
296.5,1256.0,563.157,554.405,692.843,1247.25,692.843,40.9446,44.6755,468.785
296.3,1262.0,574.281,605.61,687.719,1293.33,687.719,43.0277,47.4992,515.083
296.1,1384.0,701.426,659.583,682.574,1342.16,682.574,45.2739,50.5945,563.715
295.9,1443.0,766.035,714.925,676.965,1391.89,676.965,47.7007,53.9967,613.228
295.7,1474.0,802.859,769.564,671.141,1440.7,671.141,50.328,57.7468,661.489
295.5,1565.0,899.996,820.778,665.004,1485.78,665.004,53.1786,61.893,705.706
295.3,1607.0,948.36,865.405,658.64,1524.04,658.64,56.2783,66.4914,742.635
295.1,1561.0,908.779,900.291,652.221,1552.51,652.221,59.6573,71.6086,769.025
294.9,1634.0,988.141,922.903,645.859,1568.76,645.859,63.3499,77.3232,782.23
294.7,1566.0,926.52,931.949,639.48,1571.43,639.48,67.3964,83.729,780.824
294.5,1468.0,834.774,927.741,633.226,1560.97,633.226,71.8434,90.9379,764.96
294.3,1481.0,853.818,912.168,627.182,1539.35,627.182,76.7455,99.0845,736.338
294.1,1493.0,871.825,888.266,621.175,1509.44,621.175,82.167,108.332,697.767
293.9,1449.0,833.931,859.602,615.069,1474.67,615.069,88.1841,118.876,652.542
293.7,1374.0,764.711,829.693,609.289,1438.98,609.289,94.8872,130.96,603.846
293.5,1392.0,788.379,801.62,603.621,1405.24,603.621,102.385,144.877,554.358
293.3,1399.0,801.063,777.876,597.937,1375.81,597.937,110.808,160.991,506.078
293.1,1348.0,755.687,760.398,592.313,1352.71,592.313,120.314,179.749,460.335
292.9,1341.0,754.284,750.7,586.716,1337.42,586.716,131.099,201.704,417.897
292.7,1349.0,767.741,750.046,581.259,1331.31,581.259,143.402,227.539,379.105
292.5,1391.0,815.24,759.623,575.76,1335.38,575.76,157.523,258.092,344.008
292.3,1430.0,859.884,780.688,570.116,1350.8,570.116,173.836,294.379,312.472
292.1,1473.0,908.664,814.689,564.336,1379.03,564.336,192.822,337.607,284.26
291.9,1450.0,891.687,863.326,558.313,1421.64,558.313,215.097,389.148,259.081
291.7,1516.0,963.621,928.536,552.379,1480.92,552.379,241.464,450.438,236.634
291.5,1605.0,1058.84,1012.33,546.157,1558.49,546.157,272.987,522.722,216.622
291.3,1599.0,1059.38,1116.39,539.618,1656.01,539.618,311.09,606.534,198.769
291.1,1758.0,1225.1,1241.29,532.905,1774.2,532.905,357.71,700.763,182.819
290.9,1905.0,1379.38,1385.37,525.615,1910.99,525.615,415.522,801.302,168.548
290.7,1922.0,1404.23,1543.66,517.768,2061.43,517.768,488.282,899.624,155.752
290.5,2176.0,1666.33,1708.1,509.67,2217.77,509.67,581.369,982.479,144.256
290.3,2329.0,1828.29,1870.97,500.715,2371.69,500.715,702.671,1034.4,133.904
290.1,2527.0,2036.1,2032.22,490.901,2523.12,490.901,864.153,1043.51,124.56
289.9,2727.0,2246.59,2208.44,480.413,2688.85,480.413,1084.79,1007.54,116.108
289.7,2970.0,2501,2440.19,469.004,2909.2,469.004,1396.63,935.117,108.444
289.5,3313.0,2856.36,2801.01,456.641,3257.65,456.641,1858.42,841.113,101.478
289.3,3810.0,3367.35,3425.73,442.648,3868.38,442.648,2590.45,740.154,95.1335
289.1,5053.0,4626.77,4610.03,426.23,5036.26,426.23,3877.97,642.718,89.3415
288.9,7443.0,7039.02,7175.61,403.978,7579.58,403.978,6537.04,554.519,84.0426
288.7,14370.0,14002.1,13638.9,367.855,14006.8,367.855,13082.1,477.672,79.1847
288.5,25946.0,25647.6,26112.4,298.385,26410.8,298.385,25625.5,412.156,74.7221
288.3,28438.0,28252.8,28122.7,185.173,28307.9,185.173,27695.2,356.927,70.6144
288.1,13932.0,13849.2,13551,82.7726,13633.8,82.7726,13173.6,310.581,66.8264
287.9,4350.0,4311.32,4632.17,38.6781,4670.85,38.6781,4297.15,271.702,63.3266
287.7,1774.0,1749.47,1841.62,24.5312,1866.15,24.5312,1542.52,239.012,60.0875
287.5,1007.0,988.725,905.659,18.2746,923.934,18.2746,637.155,211.42,57.0844
287.3,627.0,612.352,525.68,14.6481,540.328,14.6481,283.365,188.019,54.2957
287.1,388.0,375.655,349.797,12.3448,362.141,12.3448,130.026,168.069,51.7018
286.9,299.0,288.1,260.324,10.8998,271.224,10.8998,60.0712,150.968,49.2854
286.7,220.0,210.204,210.781,9.79585,220.577,9.79585,27.5209,136.229,47.0312
286.5,184.0,175.056,180.761,8.94351,189.705,8.94351,12.3777,123.459,44.9251
286.3,161.0,152.767,160.718,8.23322,168.951,8.23322,5.42655,112.337,42.9547
286.1,144.0,136.439,146.018,7.5615,153.579,7.5615,2.30711,102.602,41.1089
285.9,140.0,132.999,134.366,7.00139,141.367,7.00139,0.947487,94.0409,39.3775
285.7,119.0,112.551,124.605,6.44939,131.054,6.44939,0.374731,86.4785,37.7515
285.5,108.0,101.997,116.134,6.00293,122.137,6.00293,0.142385,79.7695,36.2226
285.3,104.0,98.4212,108.629,5.57879,114.207,5.57879,0.0518751,73.7935,34.7834
285.1,90.0,84.8271,101.895,5.17291,107.068,5.17291,0.0180931,68.4501,33.427
284.9,85.0,80.164,95.8083,4.83603,100.644,4.83603,0.0060333,63.6549,32.1473
284.7,73.0,68.4927,90.2778,4.50727,94.7851,4.50727,0.00192131,59.3371,30.9388
284.5,79.0,74.8256,85.2333,4.17445,89.4078,4.17445,0.000583757,55.4365,29.7963
284.3,81.0,77.132,80.6172,3.86801,84.4852,3.86801,0.000169086,51.9018,28.7151
284.1,75.0,71.4547,76.3808,3.54534,79.9261,3.54534,4.66577e-05,48.6896,27.6911
283.9,74.0,70.7591,72.4826,3.24093,75.7236,3.24093,1.22579e-05,45.7624,26.7203
283.7,73.0,70.0432,68.8868,2.95682,71.8436,2.95682,3.06446e-06,43.0878,25.799
283.5,73.0,70.3435,65.5621,2.65647,68.2186,2.65647,7.28678e-07,40.638,24.9241
283.3,60.0,57.6175,62.4814,2.3825,64.8639,2.3825,1.64734e-07,38.3888,24.0925
283.1,56.0,53.8671,59.6207,2.13289,61.7536,2.13289,3.53948e-08,36.3192,23.3014
282.9,72.0,70.1188,56.9591,1.88124,58.8404,1.88124,7.22536e-09,34.4108,22.5483
282.7,62.0,60.3785,54.4782,1.62148,56.0997,1.62148,1.40094e-09,32.6474,21.8308
282.5,61.0,59.62,52.1615,1.37998,53.5415,1.37998,2.57931e-10,31.0148,21.1467
282.3,67.0,65.8493,49.9945,1.15066,51.1452,1.15066,4.50806e-11,29.5006,20.494
282.1,65.0,64.1253,47.9643,0.874666,48.839,0.874666,7.48033e-12,28.0936,19.8707
281.9,56.0,55.3851,46.0594,0.614904,46.6743,0.614904,1.17654e-12,26.7841,19.2753
281.7,68.0,67.6327,44.2693,0.367319,44.6366,0.367319,1.75283e-13,25.5634,18.706
281.5,58.0,57.8823,42.5849,0.117704,42.7026,0.117704,2.59102e-14,24.4236,18.1613