File: XPS/HT-O1s.csv
#No of rows lightened (2D detector)1(if not using 2D detector, value is 1 and can be ignored!),,,,,,,
x,raw_y,data-bg,sum_components,bg,sum_fit,bg_poly_,g1,g2
579.5,37038,96.3655,0,36941.6,36941.6,36941.6,3.02987e-160,2.95024e-43
578.5,37241,190.464,0,37050.5,37050.5,37050.5,8.61566e-153,5.54433e-41
577.5,37345,194.221,0,37150.8,37150.8,37150.8,1.64183e-145,9.11959e-39
576.5,37595,352.292,0,37242.7,37242.7,37242.7,2.09674e-138,1.31292e-36
575.5,37164,-162.657,0,37326.7,37326.7,37326.7,1.79447e-131,1.65438e-34
574.5,37143,-259.959,0,37403,37403,37403,1.0292e-124,1.8246e-32
573.5,37448,-23.9374,0,37471.9,37471.9,37471.9,3.95588e-118,1.7613e-30
572.5,37285,-248.913,0,37533.9,37533.9,37533.9,1.01896e-111,1.48812e-28
571.5,37385,-204.2,0,37589.2,37589.2,37589.2,1.75894e-105,1.10046e-26
570.5,37531,-107.106,0,37638.1,37638.1,37638.1,2.03478e-99,7.12278e-25
569.5,37331,-349.933,0,37680.9,37680.9,37680.9,1.57747e-93,4.03514e-23
568.5,37574,-143.98,0,37718,37718,37718,8.19556e-88,2.0008e-21
567.5,37667,-82.5373,0,37749.5,37749.5,37749.5,2.85346e-82,8.68325e-20
566.5,37630,-145.891,0,37775.9,37775.9,37775.9,6.65795e-77,3.29835e-18
565.5,37715,-82.3206,0,37797.3,37797.3,37797.3,1.04108e-71,1.0966e-16
564.5,38019,204.899,0,37814.1,37814.1,37814.1,1.09095e-66,3.19104e-15
563.5,37947,120.498,0,37826.5,37826.5,37826.5,7.66121e-62,8.12744e-14
562.5,37826,-8.78533,0,37834.8,37834.8,37834.8,3.60551e-57,1.8118e-12
561.5,37925,85.7905,3.63798e-11,37839.2,37839.2,37839.2,1.13713e-52,3.5351e-11
560.5,37832,-8.02624,6.03904e-10,37840,37840,37840,2.40343e-48,6.03709e-10
559.5,37914,76.5181,9.02219e-09,37837.5,37837.5,37837.5,3.4043e-44,9.02381e-09
558.5,38148,316.183,1.18052e-07,37831.8,37831.8,37831.8,3.23146e-40,1.18056e-07
557.5,38334,510.733,1.35182e-06,37823.3,37823.3,37823.3,2.05563e-36,1.35182e-06
556.5,38109,296.939,1.35484e-05,37812.1,37812.1,37812.1,8.76326e-33,1.35484e-05
555.5,37597,-201.423,0.000118848,37798.4,37798.4,37798.4,2.50358e-29,0.000118848
554.5,37746,-36.571,0.000912493,37782.6,37782.6,37782.6,4.7933e-26,0.000912493
553.5,37654,-110.717,0.00613201,37764.7,37764.7,37764.7,6.15009e-23,0.00613201
552.5,37686,-59.0692,0.0360672,37745.1,37745.1,37745.1,5.28815e-20,0.0360672
551.5,37620,-103.828,0.185676,37723.8,37724,37723.8,3.04721e-17,0.185676
550.5,37710,8.81192,0.836636,37701.2,37702,37701.2,1.17672e-14,0.836636
549.5,37756,78.6592,3.29953,37677.3,37680.6,37677.3,3.04525e-12,3.29953
548.5,37810,157.53,11.3894,37652.5,37663.9,37652.5,5.28138e-10,11.3894
547.5,37715,88.2458,34.4102,37626.8,37661.2,37626.8,6.13827e-08,34.4102
546.5,37613,12.6333,90.9931,37600.4,37691.4,37600.4,4.78102e-06,90.9931
545.5,37938,364.525,210.603,37573.5,37784.1,37573.5,0.000249557,210.603
544.5,38035,488.76,426.643,37546.2,37972.9,37546.2,0.00872961,426.635
543.5,38159,640.181,756.66,37518.8,38275.5,37518.8,0.204642,756.455
542.5,38640,1148.64,1177.15,37491.4,38668.5,37491.4,3.21492,1173.94
541.5,39120,1655.99,1628.41,37464,39092.4,37464,33.8471,1594.57
540.5,39595,2158.09,2134.53,37436.9,39571.4,37436.9,238.807,1895.73
539.5,40479,3068.81,3101.76,37410.2,40512,37410.2,1129.14,1972.62
538.5,42819,5435.02,5374.46,37384,42758.4,37384,3577.88,1796.58
537.5,46315,8956.59,9029.75,37358.4,46388.2,37358.4,7597.61,1432.14
536.5,49197,11863.4,11811.2,37333.6,49144.8,37333.6,10812,999.217
535.5,48231,10921.4,10921.3,37309.6,48230.9,37309.6,10311.1,610.195
534.5,44142,6855.4,6916.14,37286.6,44202.7,37286.6,6589.99,326.147
533.5,40325,3060.34,2975.1,37264.7,40239.8,37264.7,2822.53,152.579
532.5,38122,878.117,872.627,37243.9,38116.5,37243.9,810.151,62.4753
531.5,37245,20.6505,178.227,37224.3,37402.6,37224.3,155.837,22.3903
530.5,36968,-238.146,27.1119,37206.1,37233.3,37206.1,20.0886,7.02336
529.5,37046,-143.349,3.66368,37189.3,37193,37189.3,1.73541,1.92826
528.5,37145,-29.0316,0.563833,37174,37174.6,37174,0.100469,0.463364
527.5,37046,-114.259,0.101355,37160.3,37160.4,37160.3,0.00389796,0.0974573
526.5,37076,-72.0909,0.0180421,37148.1,37148.1,37148.1,0.000101349,0.0179408
525.5,37160,22.4173,0.00289247,37137.6,37137.6,37137.6,1.76593e-06,0.0028907
524.5,37104,-24.7833,0.000407684,37128.8,37128.8,37128.8,2.06207e-08,0.000407663
523.5,37028,-93.736,5.03194e-05,37121.7,37121.7,37121.7,1.61365e-10,5.03193e-05
522.5,36947,-169.478,5.43629e-06,37116.5,37116.5,37116.5,8.46236e-13,5.43629e-06
521.5,37293,179.957,5.14054e-07,37113,37113,37113,2.97405e-15,5.14051e-07
520.5,37069,-42.4557,4.25425e-08,37111.5,37111.5,37111.5,7.00454e-18,4.25446e-08
519.5,37091,-20.7377,3.08501e-09,37111.7,37111.7,37111.7,1.10557e-20,3.0819e-09
518.5,37121,7.09591,1.96451e-10,37113.9,37113.9,37113.9,1.16942e-23,1.95402e-10
517.5,37218,100.036,7.27596e-12,37118,37118,37118,8.28948e-27,1.08436e-11
516.5,37144,20.0774,0,37123.9,37123.9,37123.9,3.93786e-30,5.26688e-13
515.5,37117,-14.7769,0,37131.8,37131.8,37131.8,1.25363e-33,2.23908e-14
514.5,37254,112.48,0,37141.5,37141.5,37141.5,2.67456e-37,8.33143e-16
513.5,37343,189.861,0,37153.1,37153.1,37153.1,3.82394e-41,2.71335e-17
512.5,37388,221.385,0,37166.6,37166.6,37166.6,3.66392e-45,7.7344e-19
511.5,36946,-235.923,0,37181.9,37181.9,37181.9,2.35264e-49,1.92967e-20
510.5,37090,-109.035,0,37199,37199,37199,1.01237e-53,4.21381e-22
509.5,37581,363.086,0,37217.9,37217.9,37217.9,2.91945e-58,8.05383e-24
508.5,37074,-164.519,0,37238.5,37238.5,37238.5,5.64204e-63,1.3473e-25
507.5,37242,-18.8039,0,37260.8,37260.8,37260.8,7.30713e-68,1.97271e-27
506.5,37724,439.285,0,37284.7,37284.7,37284.7,6.34209e-73,2.52811e-29
505.5,37334,23.8045,0,37310.2,37310.2,37310.2,3.68887e-78,2.83573e-31
504.5,37569,231.819,0,37337.2,37337.2,37337.2,1.43791e-83,2.78399e-33
503.5,37103,-262.602,0,37365.6,37365.6,37365.6,3.75615e-89,2.39225e-35
502.5,37215,-180.383,0,37395.4,37395.4,37395.4,6.57551e-95,1.79921e-37
501.5,37186,-240.445,0,37426.4,37426.4,37426.4,7.71422e-101,1.18438e-39
500.5,37502,43.3001,0,37458.7,37458.7,37458.7,6.06499e-107,6.82395e-42