File: XPS/UT-C1s.csv
#No of rows lightened (2D detector)1(if not using 2D detector, value is 1 and can be ignored!)
x,raw_y,data-bg,sum_components,bg,sum_fit,bg_shirley_,v1,v2,v3
304.5,23638.0,1280.59,525.268,22357.4,22882.7,22357.4,2.92792,612.36,-90.0197
303.5,22311.0,464.882,595.145,21846.1,22441.3,21846.1,3.32855,705.636,-113.82
302.5,21807.0,443.127,691.866,21363.9,22055.7,21363.9,3.81779,821.816,-133.768
301.5,21291.0,398.34,868.597,20892.7,21761.3,20892.7,4.42399,968.994,-104.821
300.5,21432.0,999.258,1271.47,20432.7,21704.2,20432.7,5.1879,1159.15,107.136
299.5,22300.0,2330.26,2198.68,19969.7,22168.4,19969.7,6.16982,1410.58,781.933
298.5,24141.0,4653.27,4068.96,19487.7,23556.7,19487.7,7.46219,1752.3,2309.2
297.5,26182.0,7216.57,7179.47,18965.4,26144.9,18965.4,9.21288,2232.38,4937.88
296.5,29197.0,10798.6,11309.2,18398.4,29707.7,18398.4,11.6711,2934.7,8362.85
295.5,33285.0,15519.5,15557.9,17765.5,33323.4,17765.5,15.286,4014.93,11527.7
294.5,36240.0,19197,18867.6,17043,35910.6,17043,20.9435,5783.21,13063.4
293.5,37439.0,21183.2,21143.9,16255.8,37399.7,16255.8,30.6409,8906.19,12207.1
292.5,39855.0,24412.6,24330.7,15442.4,39773.1,15442.4,52.462,14887.1,9391.07
291.5,46998.0,32421.9,32872,14576.1,47448.1,14576.1,362.33,26605.6,5904.09
290.5,66969.0,53415.5,53628,13553.5,67181.5,13553.5,8144.33,42510.7,2973.01
289.5,123889.0,111795,110818,12093.6,122912,12093.6,69664.4,40025.2,1128.38
288.5,210034.0,200646,200866,9387.8,210254,9387.8,176796,23827.5,242.243
287.5,148955.0,144159,144397,4796.19,149193,4796.19,131040,13427.2,-70.5825
286.5,37925.0,36383.4,36489.2,1541.64,38030.8,1541.64,28460.4,8162.82,-134.027
285.5,7673.0,6955.4,7170.22,717.599,7887.82,717.599,1916.75,5374.58,-121.119
284.5,4633.0,4077.21,3776.02,555.787,4331.8,555.787,101.012,3771.61,-96.6074
283.5,3373.0,2912.48,2742.13,460.522,3202.65,460.522,38.8356,2779.79,-76.4972
282.5,2407.0,2014.16,2091.59,392.839,2484.43,392.839,25.2068,2128.28,-61.8923
281.5,1873.0,1526.7,1645.83,346.302,1992.13,346.302,17.8507,1679.23,-51.2497
280.5,1667.0,1355.54,1327.53,311.455,1638.98,311.455,13.3421,1357.44,-43.2523