File: XPS/Casa format/HT CP 19 Ap location C1 in image_HTCP19ApC1s_C1s.txt
BE/eV	PE: 20.0 eV
295.0	852.0
294.9	905.0
294.8	922.0
294.7	882.0
294.6	925.0
294.5	968.0
294.4	950.0
294.3	951.0
294.2	951.0
294.1	995.0
294.0	986.0
293.9	1000.0
293.8	1008.0
293.7	1027.0
293.6	1047.0
293.5	1024.0
293.4	999.0
293.3	1047.0
293.2	1084.0
293.1	1018.0
293.0	1048.0
292.9	1083.0
292.8	1067.0
292.7	1076.0
292.6	1120.0
292.5	1133.0
292.4	1123.0
292.3	1137.0
292.2	1151.0
292.1	1203.0
292.0	1256.0
291.9	1269.0
291.8	1262.0
291.7	1273.0
291.6	1384.0
291.5	1380.0
291.4	1443.0
291.3	1427.0
291.2	1474.0
291.1	1550.0
291.0	1565.0
290.9	1571.0
290.8	1607.0
290.7	1556.0
290.6	1561.0
290.5	1574.0
290.4	1634.0
290.3	1509.0
290.2	1566.0
290.1	1516.0
290.0	1468.0
289.9	1510.0
289.8	1481.0
289.7	1479.0
289.6	1493.0
289.5	1516.0
289.4	1449.0
289.3	1399.0
289.2	1374.0
289.1	1419.0
289.0	1392.0
288.9	1409.0
288.8	1399.0
288.7	1372.0
288.6	1348.0
288.5	1410.0
288.4	1341.0
288.3	1348.0
288.2	1349.0
288.1	1361.0
288.0	1391.0
287.9	1390.0
287.8	1430.0
287.7	1418.0
287.6	1473.0
287.5	1495.0
287.4	1450.0
287.3	1474.0
287.2	1516.0
287.1	1550.0
287.0	1605.0
286.9	1617.0
286.8	1599.0
286.7	1709.0
286.6	1758.0
286.5	1834.0
286.4	1905.0
286.3	1962.0
286.2	1922.0
286.1	2068.0
286.0	2176.0
285.9	2237.0
285.8	2329.0
285.7	2507.0
285.6	2527.0
285.5	2641.0
285.4	2727.0
285.3	2895.0
285.2	2970.0
285.1	3122.0
285.0	3313.0
284.9	3582.0
284.8	3810.0
284.7	4280.0
284.6	5053.0
284.5	5912.0
284.4	7443.0
284.3	10357.0
284.2	14370.0
284.1	19862.0
284.0	25946.0
283.9	29840.0
283.8	28438.0
283.7	22021.0
283.6	13932.0
283.5	7796.0
283.4	4350.0
283.3	2621.0
283.2	1774.0
283.1	1309.0
283.0	1007.0
282.9	780.0
282.8	627.0
282.7	508.0
282.6	388.0
282.5	324.0
282.4	299.0
282.3	245.0
282.2	220.0
282.1	200.0
282.0	184.0
281.9	166.0
281.8	161.0
281.7	170.0
281.6	144.0
281.5	132.0
281.4	140.0
281.3	132.0
281.2	119.0
281.1	101.0
281.0	108.0
280.9	101.0
280.8	104.0
280.7	96.0
280.6	90.0
280.5	76.0
280.4	85.0
280.3	77.0
280.2	73.0
280.1	91.0
280.0	79.0
279.9	72.0
279.8	81.0
279.7	78.0
279.6	75.0
279.5	75.0
279.4	74.0
279.3	66.0
279.2	73.0
279.1	75.0
279.0	73.0
278.9	62.0
278.8	60.0
278.7	63.0
278.6	56.0
278.5	68.0
278.4	72.0
278.3	56.0
278.2	62.0
278.1	57.0
278.0	61.0
277.9	52.0
277.8	67.0
277.7	69.0
277.6	65.0
277.5	63.0
277.4	56.0
277.3	66.0
277.2	68.0
277.1	55.0
277.0	58.0