File: XPS/Casa format/HT CP 19 Ap location C1 in image_HTCP19Apwide_wide.txt
BE/eV	PE: 160.0 eV
1200.0	22946.0
1195.0	23059.0
1190.0	23163.0
1185.0	23146.0
1180.0	23014.0
1175.0	23459.0
1170.0	23669.0
1165.0	23638.0
1160.0	23732.0
1155.0	24007.0
1150.0	23898.0
1145.0	24064.0
1140.0	24161.0
1135.0	24351.0
1130.0	24642.0
1125.0	24408.0
1120.0	25048.0
1115.0	24838.0
1110.0	25425.0
1105.0	25589.0
1100.0	25432.0
1095.0	25703.0
1090.0	25700.0
1085.0	25896.0
1080.0	26299.0
1075.0	26191.0
1070.0	26625.0
1065.0	27048.0
1060.0	26817.0
1055.0	27042.0
1050.0	27330.0
1045.0	27273.0
1040.0	27632.0
1035.0	27805.0
1030.0	28299.0
1025.0	28216.0
1020.0	28801.0
1015.0	28796.0
1010.0	29299.0
1005.0	29626.0
1000.0	30759.0
995.0	30632.0
990.0	30421.0
985.0	30712.0
980.0	31995.0
975.0	33755.0
970.0	32417.0
965.0	29937.0
960.0	28712.0
955.0	28625.0
950.0	28843.0
945.0	28711.0
940.0	29046.0
935.0	29168.0
930.0	29107.0
925.0	29141.0
920.0	29126.0
915.0	29384.0
910.0	29779.0
905.0	29900.0
900.0	29947.0
895.0	29898.0
890.0	30198.0
885.0	30283.0
880.0	30289.0
875.0	30195.0
870.0	30744.0
865.0	30810.0
860.0	30842.0
855.0	30776.0
850.0	31069.0
845.0	31222.0
840.0	31332.0
835.0	31577.0
830.0	31398.0
825.0	31476.0
820.0	31794.0
815.0	32033.0
810.0	31874.0
805.0	32101.0
800.0	31941.0
795.0	32100.0
790.0	32238.0
785.0	32393.0
780.0	32489.0
775.0	32548.0
770.0	32647.0
765.0	32960.0
760.0	33013.0
755.0	33333.0
750.0	32775.0
745.0	33064.0
740.0	33262.0
735.0	33290.0
730.0	33537.0
725.0	33928.0
720.0	34301.0
715.0	34210.0
710.0	33982.0
705.0	33995.0
700.0	34106.0
695.0	34408.0
690.0	34380.0
685.0	34567.0
680.0	35055.0
675.0	34707.0
670.0	34549.0
665.0	34757.0
660.0	35372.0
655.0	35434.0
650.0	35411.0
645.0	35458.0
640.0	35424.0
635.0	35687.0
630.0	35646.0
625.0	35721.0
620.0	36134.0
615.0	35912.0
610.0	36393.0
605.0	36302.0
600.0	36426.0
595.0	36818.0
590.0	36532.0
585.0	36878.0
580.0	36888.0
575.0	37038.0
570.0	37143.0
565.0	37331.0
560.0	38019.0
555.0	37914.0
550.0	37746.0
545.0	37756.0
540.0	38035.0
535.0	40479.0
530.0	44142.0
525.0	37046.0
520.0	37104.0
515.0	37091.0
510.0	37254.0
505.0	37581.0
500.0	37569.0
495.0	37451.0
490.0	37813.0
485.0	37877.0
480.0	37547.0
475.0	38151.0
470.0	38226.0
465.0	38320.0
460.0	38332.0
455.0	38519.0
450.0	38539.0
445.0	38715.0
440.0	39002.0
435.0	39169.0
430.0	39444.0
425.0	39533.0
420.0	39407.0
415.0	39888.0
410.0	40152.0
405.0	40188.0
400.0	40590.0
395.0	40416.0
390.0	40853.0
385.0	40744.0
380.0	41205.0
375.0	41549.0
370.0	41634.0
365.0	41486.0
360.0	41968.0
355.0	42137.0
350.0	43419.0
345.0	43700.0
340.0	43520.0
335.0	41529.0
330.0	40200.0
325.0	42913.0
320.0	47364.0
315.0	49466.0
310.0	46375.0
305.0	34460.0
300.0	24212.0
295.0	25370.0
290.0	44887.0
285.0	137235.0
280.0	4958.0
275.0	1700.0
270.0	1524.0
265.0	1408.0
260.0	1391.0
255.0	1404.0
250.0	1387.0
245.0	1396.0
240.0	1419.0
235.0	1403.0
230.0	1423.0
225.0	1379.0
220.0	1404.0
215.0	1419.0
210.0	1400.0
205.0	1431.0
200.0	1445.0
195.0	1392.0
190.0	1410.0
185.0	1454.0
180.0	1459.0
175.0	1503.0
170.0	1515.0
165.0	1473.0
160.0	1403.0
155.0	1704.0
150.0	1582.0
145.0	1484.0
140.0	1505.0
135.0	1490.0
130.0	1546.0
125.0	1511.0
120.0	1476.0
115.0	1498.0
110.0	1466.0
105.0	1534.0
100.0	1657.0
95.0	1483.0
90.0	1512.0
85.0	1447.0
80.0	1535.0
75.0	1598.0
70.0	1530.0
65.0	1469.0
60.0	1474.0
55.0	1579.0
50.0	1764.0
45.0	1864.0
40.0	1693.0
35.0	1410.0
30.0	1343.0
25.0	1711.0
20.0	2777.0
15.0	2645.0
10.0	1516.0
5.0	558.0
0.0	39.0
-5.0	1.0