File: XPS/Casa format/HT CP 19 Ap location C1 in image-0.6621_HTCP19ApCl2p_Cl2p.txt
BE/eV	PE: 20.0 eV
208.0	366.0
207.9	379.0
207.8	363.0
207.7	384.0
207.6	356.0
207.5	349.0
207.4	371.0
207.3	408.0
207.2	367.0
207.1	337.0
207.0	348.0
206.9	359.0
206.8	370.0
206.7	375.0
206.6	390.0
206.5	359.0
206.4	376.0
206.3	376.0
206.2	343.0
206.1	360.0
206.0	361.0
205.9	359.0
205.8	366.0
205.7	350.0
205.6	380.0
205.5	375.0
205.4	361.0
205.3	360.0
205.2	353.0
205.1	371.0
205.0	357.0
204.9	363.0
204.8	371.0
204.7	356.0
204.6	362.0
204.5	363.0
204.4	348.0
204.3	375.0
204.2	362.0
204.1	345.0
204.0	367.0
203.9	360.0
203.8	387.0
203.7	370.0
203.6	372.0
203.5	371.0
203.4	345.0
203.3	365.0
203.2	371.0
203.1	353.0
203.0	342.0
202.9	356.0
202.8	364.0
202.7	364.0
202.6	353.0
202.5	345.0
202.4	360.0
202.3	372.0
202.2	374.0
202.1	377.0
202.0	358.0
201.9	352.0
201.8	374.0
201.7	376.0
201.6	398.0
201.5	379.0
201.4	361.0
201.3	372.0
201.2	389.0
201.1	359.0
201.0	376.0
200.9	377.0
200.8	364.0
200.7	352.0
200.6	383.0
200.5	360.0
200.4	341.0
200.3	373.0
200.2	369.0
200.1	365.0
200.0	381.0
199.9	365.0
199.8	356.0
199.7	372.0
199.6	376.0
199.5	369.0
199.4	380.0
199.3	376.0
199.2	397.0
199.1	358.0
199.0	365.0
198.9	347.0
198.8	342.0
198.7	362.0
198.6	363.0
198.5	381.0
198.4	386.0
198.3	362.0
198.2	383.0
198.1	402.0
198.0	396.0
197.9	362.0
197.8	340.0
197.7	360.0
197.6	343.0
197.5	337.0
197.4	337.0
197.3	370.0
197.2	374.0
197.1	356.0
197.0	388.0
196.9	397.0
196.8	362.0
196.7	382.0
196.6	350.0
196.5	329.0
196.4	370.0
196.3	362.0
196.2	355.0
196.1	358.0
196.0	375.0
195.9	350.0
195.8	374.0
195.7	353.0
195.6	354.0
195.5	381.0
195.4	388.0
195.3	363.0
195.2	384.0
195.1	357.0
195.0	334.0