File: XPS/Casa format/HT CP 19 Ap location C1 in image-0.6621_HTCP19ApTi3s_Ti3s.txt
BE/eV	PE: 20.0 eV
74.0	166.0
73.8	156.0
73.6	168.0
73.4	177.0
73.2	174.0
73.0	176.0
72.8	147.0
72.6	157.0
72.4	163.0
72.2	170.0
72.0	163.0
71.8	158.0
71.6	154.0
71.4	166.0
71.2	174.0
71.0	156.0
70.8	166.0
70.6	173.0
70.4	180.0
70.2	168.0
70.0	142.0
69.8	171.0
69.6	158.0
69.4	176.0
69.2	150.0
69.0	171.0
68.8	174.0
68.6	168.0
68.4	174.0
68.2	158.0
68.0	156.0
67.8	158.0
67.6	165.0
67.4	181.0
67.2	156.0
67.0	151.0
66.8	161.0
66.6	156.0
66.4	155.0
66.2	163.0
66.0	160.0
65.8	161.0
65.6	146.0
65.4	147.0
65.2	156.0
65.0	155.0
64.8	153.0
64.6	137.0
64.4	160.0
64.2	152.0
64.0	151.0
63.8	171.0
63.6	142.0
63.4	164.0
63.2	150.0
63.0	155.0
62.8	158.0
62.6	160.0
62.4	153.0
62.2	160.0
62.0	157.0
61.8	163.0
61.6	171.0
61.4	153.0
61.2	157.0
61.0	142.0
60.8	142.0
60.6	152.0
60.4	159.0
60.2	155.0
60.0	156.0
59.8	157.0
59.6	167.0
59.4	151.0
59.2	158.0
59.0	162.0
58.8	154.0
58.6	170.0
58.4	153.0
58.2	157.0
58.0	142.0
57.8	157.0
57.6	149.0
57.4	177.0
57.2	175.0
57.0	178.0
56.8	163.0
56.6	175.0
56.4	180.0
56.2	177.0
56.0	162.0
55.8	154.0
55.6	172.0
55.4	166.0
55.2	176.0
55.0	170.0
54.8	182.0
54.6	182.0
54.4	163.0
54.2	163.0
54.0	169.0
53.8	166.0
53.6	189.0
53.4	175.0
53.2	188.0
53.0	159.0
52.8	172.0
52.6	170.0
52.4	166.0
52.2	180.0
52.0	196.0
51.8	206.0
51.6	187.0
51.4	189.0
51.2	194.0
51.0	205.0
50.8	200.0
50.6	187.0
50.4	180.0
50.2	194.0
50.0	176.0
49.8	179.0
49.6	186.0
49.4	197.0
49.2	179.0
49.0	211.0
48.8	194.0
48.6	197.0
48.4	179.0
48.2	204.0
48.0	214.0
47.8	190.0
47.6	204.0
47.4	197.0
47.2	214.0
47.0	177.0
46.8	194.0
46.6	215.0
46.4	171.0
46.2	208.0
46.0	212.0
45.8	204.0
45.6	195.0
45.4	182.0
45.2	195.0
45.0	182.0
44.8	193.0
44.6	186.0
44.4	180.0
44.2	191.0
44.0	205.0