File: XPS/Casa format/HT CP 19 Ap location C1 in image-0.6621_HTCP19ApCl2s_Cl2s.txt
BE/eV	PE: 20.0 eV
285.0	2000.0
284.8	2385.0
284.6	3074.0
284.4	4808.0
284.2	9072.0
284.0	16208.0
283.8	16484.0
283.6	7589.0
283.4	2363.0
283.2	1013.0
283.0	561.0
282.8	358.0
282.6	242.0
282.4	166.0
282.2	112.0
282.0	106.0
281.8	100.0
281.6	78.0
281.4	80.0
281.2	74.0
281.0	51.0
280.8	56.0
280.6	53.0
280.4	52.0
280.2	61.0
280.0	53.0
279.8	45.0
279.6	46.0
279.4	49.0
279.2	38.0
279.0	37.0
278.8	46.0
278.6	28.0
278.4	33.0
278.2	30.0
278.0	36.0
277.8	34.0
277.6	36.0
277.4	45.0
277.2	42.0
277.0	29.0
276.8	42.0
276.6	31.0
276.4	29.0
276.2	35.0
276.0	32.0
275.8	30.0
275.6	34.0
275.4	32.0
275.2	28.0
275.0	35.0
274.8	38.0
274.6	33.0
274.4	33.0
274.2	36.0
274.0	29.0
273.8	26.0
273.6	35.0
273.4	43.0
273.2	30.0
273.0	33.0
272.8	35.0
272.6	27.0
272.4	34.0
272.2	30.0
272.0	32.0
271.8	34.0
271.6	38.0
271.4	30.0
271.2	34.0
271.0	23.0
270.8	25.0
270.6	32.0
270.4	40.0
270.2	27.0
270.0	37.0
269.8	41.0
269.6	26.0
269.4	37.0
269.2	35.0
269.0	36.0
268.8	31.0
268.6	31.0
268.4	31.0
268.2	43.0
268.0	26.0
267.8	30.0
267.6	27.0
267.4	38.0
267.2	34.0
267.0	30.0
266.8	34.0
266.6	38.0
266.4	29.0
266.2	27.0
266.0	37.0
265.8	24.0
265.6	27.0
265.4	26.0
265.2	28.0
265.0	31.0
264.8	29.0
264.6	42.0
264.4	32.0
264.2	25.0
264.0	34.0
263.8	34.0
263.6	23.0
263.4	25.0
263.2	35.0
263.0	36.0
262.8	34.0
262.6	37.0
262.4	30.0
262.2	34.0
262.0	49.0
261.8	28.0
261.6	27.0
261.4	32.0
261.2	35.0
261.0	30.0
260.8	38.0
260.6	32.0
260.4	28.0
260.2	28.0
260.0	33.0
259.8	34.0
259.6	31.0
259.4	36.0
259.2	32.0
259.0	30.0
258.8	30.0
258.6	30.0
258.4	28.0
258.2	31.0
258.0	30.0
257.8	22.0
257.6	27.0
257.4	29.0
257.2	28.0
257.0	27.0
256.8	27.0
256.6	29.0
256.4	30.0
256.2	36.0
256.0	28.0
255.8	30.0
255.6	37.0
255.4	20.0
255.2	26.0
255.0	30.0