File: XPS/Casa format/HT CP 19 Ap location C1 in image-0.6621_HTCP19ApTi2p_Ti2p.txt
BE/eV	PE: 20.0 eV
470.0	12600.0
469.9	12668.0
469.8	12829.0
469.7	12820.0
469.6	12742.0
469.5	12697.0
469.4	12700.0
469.3	12489.0
469.2	12679.0
469.1	12755.0
469.0	12590.0
468.9	12865.0
468.8	12771.0
468.7	12559.0
468.6	12749.0
468.5	12752.0
468.4	12860.0
468.3	12724.0
468.2	12712.0
468.1	12800.0
468.0	12673.0
467.9	12571.0
467.8	12796.0
467.7	12683.0
467.6	12568.0
467.5	12728.0
467.4	12724.0
467.3	12561.0
467.2	12714.0
467.1	12699.0
467.0	12634.0
466.9	12867.0
466.8	12790.0
466.7	12598.0
466.6	12821.0
466.5	12746.0
466.4	12632.0
466.3	12874.0
466.2	12917.0
466.1	12844.0
466.0	12831.0
465.9	12635.0
465.8	12627.0
465.7	12803.0
465.6	12979.0
465.5	12825.0
465.4	12722.0
465.3	12840.0
465.2	12779.0
465.1	12621.0
465.0	12770.0
464.9	12820.0
464.8	12741.0
464.7	12700.0
464.6	12814.0
464.5	12717.0
464.4	12734.0
464.3	12643.0
464.2	12748.0
464.1	12757.0
464.0	12709.0
463.9	12584.0
463.8	12731.0
463.7	12838.0
463.6	12827.0
463.5	12850.0
463.4	12839.0
463.3	12753.0
463.2	12722.0
463.1	12787.0
463.0	12764.0
462.9	12752.0
462.8	12798.0
462.7	12721.0
462.6	12884.0
462.5	12645.0
462.4	12804.0
462.3	12776.0
462.2	12909.0
462.1	12712.0
462.0	12717.0
461.9	12520.0
461.8	12820.0
461.7	12892.0
461.6	12744.0
461.5	12819.0
461.4	12851.0
461.3	12758.0
461.2	12714.0
461.1	12888.0
461.0	12866.0
460.9	12901.0
460.8	12836.0
460.7	12659.0
460.6	12830.0
460.5	12762.0
460.4	12774.0
460.3	12831.0
460.2	12770.0
460.1	12840.0
460.0	12857.0
459.9	12902.0
459.8	12752.0
459.7	12851.0
459.6	12619.0
459.5	12791.0
459.4	12728.0
459.3	12803.0
459.2	12871.0
459.1	12902.0
459.0	12682.0
458.9	12689.0
458.8	12786.0
458.7	12752.0
458.6	12641.0
458.5	12571.0
458.4	12635.0
458.3	12720.0
458.2	12840.0
458.1	12695.0
458.0	12775.0
457.9	12764.0
457.8	12770.0
457.7	12576.0
457.6	12614.0
457.5	12844.0
457.4	12684.0
457.3	12693.0
457.2	12718.0
457.1	12706.0
457.0	12656.0
456.9	12809.0
456.8	12910.0
456.7	12860.0
456.6	12839.0
456.5	12877.0
456.4	12862.0
456.3	12846.0
456.2	12690.0
456.1	12960.0
456.0	12725.0
455.9	12642.0
455.8	12730.0
455.7	12693.0
455.6	12802.0
455.5	12798.0
455.4	12825.0
455.3	12850.0
455.2	12837.0
455.1	12876.0
455.0	12942.0
454.9	12977.0
454.8	12798.0
454.7	12805.0
454.6	12906.0
454.5	12930.0
454.4	12866.0
454.3	12750.0
454.2	12790.0
454.1	12803.0
454.0	12894.0
453.9	12967.0
453.8	12766.0
453.7	12771.0
453.6	12854.0
453.5	12827.0
453.4	12856.0
453.3	12698.0
453.2	12741.0
453.1	12810.0
453.0	12657.0
452.9	12783.0
452.8	12982.0
452.7	12917.0
452.6	12792.0
452.5	12888.0
452.4	12853.0
452.3	12867.0
452.2	12833.0
452.1	12745.0
452.0	12826.0
451.9	12699.0
451.8	12729.0
451.7	12793.0
451.6	12853.0
451.5	12824.0
451.4	12668.0
451.3	12954.0
451.2	12927.0
451.1	12819.0
451.0	12792.0
450.9	12813.0
450.8	12696.0
450.7	12666.0
450.6	12888.0
450.5	12963.0
450.4	12819.0
450.3	12829.0
450.2	12909.0
450.1	12759.0
450.0	12912.0