File: XPS/Casa format/MX-HT 0p1 20Ap location X1 in image_MXHT0p120ApTi3s_Ti3s.txt
BE/eV	PE: 20.0 eV
74.0	569.0
73.8	594.0
73.6	574.0
73.4	535.0
73.2	558.0
73.0	544.0
72.8	570.0
72.6	545.0
72.4	576.0
72.2	556.0
72.0	548.0
71.8	519.0
71.6	542.0
71.4	546.0
71.2	555.0
71.0	537.0
70.8	533.0
70.6	545.0
70.4	561.0
70.2	580.0
70.0	530.0
69.8	529.0
69.6	578.0
69.4	516.0
69.2	525.0
69.0	514.0
68.8	500.0
68.6	475.0
68.4	507.0
68.2	531.0
68.0	522.0
67.8	529.0
67.6	504.0
67.4	499.0
67.2	515.0
67.0	513.0
66.8	547.0
66.6	494.0
66.4	537.0
66.2	525.0
66.0	554.0
65.8	537.0
65.6	542.0
65.4	529.0
65.2	537.0
65.0	542.0
64.8	569.0
64.6	561.0
64.4	569.0
64.2	579.0
64.0	598.0
63.8	622.0
63.6	590.0
63.4	613.0
63.2	651.0
63.0	670.0
62.8	646.0
62.6	696.0
62.4	723.0
62.2	747.0
62.0	770.0
61.8	736.0
61.6	788.0
61.4	801.0
61.2	749.0
61.0	793.0
60.8	790.0
60.6	793.0
60.4	835.0
60.2	833.0
60.0	858.0
59.8	924.0
59.6	851.0
59.4	865.0
59.2	897.0
59.0	914.0
58.8	858.0
58.6	869.0
58.4	823.0
58.2	796.0
58.0	720.0
57.8	700.0
57.6	649.0
57.4	648.0
57.2	629.0
57.0	612.0
56.8	572.0
56.6	535.0
56.4	545.0
56.2	576.0
56.0	533.0
55.8	541.0
55.6	543.0
55.4	535.0
55.2	528.0
55.0	496.0
54.8	516.0
54.6	524.0
54.4	512.0
54.2	542.0
54.0	496.0
53.8	497.0
53.6	531.0
53.4	515.0
53.2	489.0
53.0	480.0
52.8	516.0
52.6	496.0
52.4	527.0
52.2	485.0
52.0	531.0
51.8	492.0
51.6	515.0
51.4	526.0
51.2	526.0
51.0	525.0
50.8	529.0
50.6	452.0
50.4	499.0
50.2	514.0
50.0	487.0
49.8	537.0
49.6	514.0
49.4	515.0
49.2	505.0
49.0	511.0
48.8	475.0
48.6	525.0
48.4	500.0
48.2	518.0
48.0	518.0
47.8	509.0
47.6	498.0
47.4	482.0
47.2	522.0
47.0	497.0
46.8	526.0
46.6	512.0
46.4	493.0
46.2	480.0
46.0	502.0
45.8	508.0
45.6	492.0
45.4	478.0
45.2	465.0
45.0	463.0
44.8	453.0
44.6	462.0
44.4	432.0
44.2	488.0
44.0	472.0