File: XPS/Casa format/MX-HT 0p5 20Ap location H1 in image_MXHT0p520Apwide_wide.txt
BE/eV	PE: 160.0 eV
1200.0	85947.0
1195.0	86984.0
1190.0	88074.0
1185.0	89168.0
1180.0	90388.0
1175.0	91317.0
1170.0	92579.0
1165.0	94147.0
1160.0	95850.0
1155.0	98272.0
1150.0	98493.0
1145.0	99192.0
1140.0	100322.0
1135.0	104131.0
1130.0	106464.0
1125.0	108282.0
1120.0	106524.0
1115.0	107005.0
1110.0	113614.0
1105.0	126839.0
1100.0	119163.0
1095.0	88061.0
1090.0	78660.0
1085.0	75318.0
1080.0	76405.0
1075.0	80111.0
1070.0	91467.0
1065.0	82495.0
1060.0	67250.0
1055.0	65404.0
1050.0	65281.0
1045.0	66561.0
1040.0	67608.0
1035.0	69068.0
1030.0	66658.0
1025.0	66929.0
1020.0	67223.0
1015.0	67853.0
1010.0	68229.0
1005.0	68818.0
1000.0	69719.0
995.0	71966.0
990.0	71219.0
985.0	69469.0
980.0	71023.0
975.0	80859.0
970.0	73353.0
965.0	64185.0
960.0	62335.0
955.0	62230.0
950.0	62409.0
945.0	62940.0
940.0	62892.0
935.0	63840.0
930.0	63903.0
925.0	64812.0
920.0	65238.0
915.0	65713.0
910.0	65751.0
905.0	66547.0
900.0	67093.0
895.0	67757.0
890.0	68062.0
885.0	68872.0
880.0	69638.0
875.0	70921.0
870.0	70209.0
865.0	70292.0
860.0	71525.0
855.0	75408.0
850.0	71645.0
845.0	72623.0
840.0	71476.0
835.0	74440.0
830.0	81523.0
825.0	71740.0
820.0	68762.0
815.0	69385.0
810.0	68728.0
805.0	68910.0
800.0	69530.0
795.0	69971.0
790.0	70432.0
785.0	70609.0
780.0	71406.0
775.0	71892.0
770.0	72069.0
765.0	73422.0
760.0	73495.0
755.0	74029.0
750.0	74337.0
745.0	74699.0
740.0	75307.0
735.0	76051.0
730.0	76271.0
725.0	76245.0
720.0	76504.0
715.0	77670.0
710.0	79986.0
705.0	78811.0
700.0	77906.0
695.0	77904.0
690.0	79239.0
685.0	113503.0
680.0	76125.0
675.0	76511.0
670.0	77101.0
665.0	77321.0
660.0	78167.0
655.0	78438.0
650.0	79561.0
645.0	79987.0
640.0	80441.0
635.0	81584.0
630.0	81705.0
625.0	82764.0
620.0	82913.0
615.0	84274.0
610.0	85655.0
605.0	85484.0
600.0	86336.0
595.0	87423.0
590.0	88935.0
585.0	91089.0
580.0	92540.0
575.0	93182.0
570.0	91375.0
565.0	101311.0
560.0	99543.0
555.0	81777.0
550.0	77990.0
545.0	78075.0
540.0	76283.0
535.0	77029.0
530.0	116505.0
525.0	70493.0
520.0	70214.0
515.0	71083.0
510.0	71964.0
505.0	72797.0
500.0	71676.0
495.0	71112.0
490.0	73331.0
485.0	78536.0
480.0	82649.0
475.0	83506.0
470.0	81220.0
465.0	85881.0
460.0	109266.0
455.0	140487.0
450.0	29152.0
445.0	27408.0
440.0	27580.0
435.0	27476.0
430.0	27376.0
425.0	27374.0
420.0	27719.0
415.0	27792.0
410.0	27527.0
405.0	27694.0
400.0	28591.0
395.0	27765.0
390.0	27525.0
385.0	27800.0
380.0	27600.0
375.0	27746.0
370.0	27926.0
365.0	27720.0
360.0	27851.0
355.0	28268.0
350.0	28289.0
345.0	28143.0
340.0	28502.0
335.0	28002.0
330.0	27381.0
325.0	27941.0
320.0	29085.0
315.0	29787.0
310.0	29444.0
305.0	25120.0
300.0	20024.0
295.0	20155.0
290.0	27343.0
285.0	66473.0
280.0	17466.0
275.0	7571.0
270.0	9261.0
265.0	7334.0
260.0	7251.0
255.0	7103.0
250.0	7361.0
245.0	7404.0
240.0	7251.0
235.0	7351.0
230.0	7489.0
225.0	7728.0
220.0	7813.0
215.0	7618.0
210.0	7577.0
205.0	7677.0
200.0	10703.0
195.0	7485.0
190.0	7357.0
185.0	7459.0
180.0	7533.0
175.0	7699.0
170.0	7552.0
165.0	7753.0
160.0	7871.0
155.0	8164.0
150.0	8179.0
145.0	8069.0
140.0	8203.0
135.0	8202.0
130.0	8456.0
125.0	8603.0
120.0	8571.0
115.0	8832.0
110.0	9030.0
105.0	9144.0
100.0	9227.0
95.0	9255.0
90.0	9480.0
85.0	10069.0
80.0	10058.0
75.0	9913.0
70.0	9289.0
65.0	10096.0
60.0	15768.0
55.0	9209.0
50.0	8765.0
45.0	8120.0
40.0	9088.0
35.0	19767.0
30.0	4638.0
25.0	2891.0
20.0	3428.0
15.0	2157.0
10.0	2381.0
5.0	2680.0
0.0	330.0
-5.0	7.0