File: XPS/Casa format/MX-HT 0p5 20Ap location H1 in image_MXHT0p520ApTi2p_Ti2p.txt
BE/eV	PE: 20.0 eV
470.0	7199.0
469.9	7291.0
469.8	7155.0
469.7	7248.0
469.6	7187.0
469.5	7162.0
469.4	7196.0
469.3	7132.0
469.2	7149.0
469.1	7146.0
469.0	7046.0
468.9	7039.0
468.8	6973.0
468.7	7050.0
468.6	7044.0
468.5	7045.0
468.4	7056.0
468.3	6979.0
468.2	7028.0
468.1	6994.0
468.0	6940.0
467.9	6920.0
467.8	6950.0
467.7	6833.0
467.6	6937.0
467.5	6910.0
467.4	6854.0
467.3	6895.0
467.2	6890.0
467.1	6890.0
467.0	6934.0
466.9	6918.0
466.8	6929.0
466.7	6953.0
466.6	7043.0
466.5	6996.0
466.4	7073.0
466.3	7020.0
466.2	6978.0
466.1	7090.0
466.0	7070.0
465.9	7084.0
465.8	7087.0
465.7	7168.0
465.6	7368.0
465.5	7286.0
465.4	7198.0
465.3	7380.0
465.2	7498.0
465.1	7620.0
465.0	7630.0
464.9	7592.0
464.8	7639.0
464.7	7571.0
464.6	7691.0
464.5	7793.0
464.4	7800.0
464.3	7896.0
464.2	7881.0
464.1	7840.0
464.0	7846.0
463.9	8036.0
463.8	7981.0
463.7	7937.0
463.6	8006.0
463.5	8013.0
463.4	8202.0
463.3	8033.0
463.2	8180.0
463.1	8345.0
463.0	8481.0
462.9	8603.0
462.8	8570.0
462.7	8738.0
462.6	8895.0
462.5	9047.0
462.4	9089.0
462.3	9119.0
462.2	9403.0
462.1	9534.0
462.0	9672.0
461.9	9885.0
461.8	10130.0
461.7	10153.0
461.6	10180.0
461.5	10502.0
461.4	10433.0
461.3	10531.0
461.2	10749.0
461.1	11076.0
461.0	11038.0
460.9	10891.0
460.8	10846.0
460.7	10619.0
460.6	10743.0
460.5	10471.0
460.4	10215.0
460.3	9886.0
460.2	9496.0
460.1	9216.0
460.0	8916.0
459.9	8706.0
459.8	8555.0
459.7	8551.0
459.6	8500.0
459.5	8640.0
459.4	8681.0
459.3	8870.0
459.2	9168.0
459.1	9448.0
459.0	9733.0
458.9	9891.0
458.8	9910.0
458.7	9982.0
458.6	10063.0
458.5	9900.0
458.4	9466.0
458.3	9112.0
458.2	9053.0
458.1	8733.0
458.0	8393.0
457.9	8274.0
457.8	8215.0
457.7	8066.0
457.6	8173.0
457.5	8304.0
457.4	8384.0
457.3	8573.0
457.2	8842.0
457.1	8984.0
457.0	9260.0
456.9	9655.0
456.8	9879.0
456.7	10208.0
456.6	10603.0
456.5	11010.0
456.4	11447.0
456.3	11719.0
456.2	12050.0
456.1	12470.0
456.0	12678.0
455.9	13115.0
455.8	13541.0
455.7	13753.0
455.6	14115.0
455.5	14423.0
455.4	14543.0
455.3	15078.0
455.2	15381.0
455.1	15435.0
455.0	15559.0
454.9	15499.0
454.8	15217.0
454.7	15149.0
454.6	14754.0
454.5	14455.0
454.4	13801.0
454.3	12877.0
454.2	11183.0
454.1	8969.0
454.0	6979.0
453.9	5409.0
453.8	4538.0
453.7	4077.0
453.6	3629.0
453.5	3429.0
453.4	3386.0
453.3	3255.0
453.2	3237.0
453.1	3142.0
453.0	3011.0
452.9	3076.0
452.8	3039.0
452.7	3028.0
452.6	3016.0
452.5	2913.0
452.4	2932.0
452.3	2938.0
452.2	2911.0
452.1	2909.0
452.0	2859.0
451.9	2879.0
451.8	2796.0
451.7	2837.0
451.6	2899.0
451.5	2903.0
451.4	2770.0
451.3	2867.0
451.2	2824.0
451.1	2771.0
451.0	2787.0
450.9	2882.0
450.8	2807.0
450.7	2777.0
450.6	2716.0
450.5	2741.0
450.4	2842.0
450.3	2761.0
450.2	2815.0
450.1	2808.0
450.0	2796.0