File: XPS/Casa format/MX-HT 0p1 20Ap location X1 in image_MXHT0p120ApCl2s_Cl2s.txt
BE/eV	PE: 20.0 eV
285.0	1754.0
284.8	2076.0
284.6	2762.0
284.4	4161.0
284.2	7707.0
284.0	12183.0
283.8	10728.0
283.6	4757.0
283.4	1629.0
283.2	870.0
283.0	544.0
282.8	374.0
282.6	300.0
282.4	275.0
282.2	256.0
282.0	258.0
281.8	339.0
281.6	497.0
281.4	713.0
281.2	579.0
281.0	247.0
280.8	152.0
280.6	119.0
280.4	104.0
280.2	94.0
280.0	95.0
279.8	92.0
279.6	100.0
279.4	111.0
279.2	95.0
279.0	90.0
278.8	93.0
278.6	105.0
278.4	102.0
278.2	96.0
278.0	96.0
277.8	91.0
277.6	76.0
277.4	78.0
277.2	83.0
277.0	102.0
276.8	89.0
276.6	89.0
276.4	97.0
276.2	92.0
276.0	85.0
275.8	76.0
275.6	102.0
275.4	93.0
275.2	81.0
275.0	83.0
274.8	108.0
274.6	90.0
274.4	82.0
274.2	85.0
274.0	79.0
273.8	74.0
273.6	94.0
273.4	77.0
273.2	88.0
273.0	101.0
272.8	94.0
272.6	93.0
272.4	77.0
272.2	83.0
272.0	90.0
271.8	99.0
271.6	109.0
271.4	88.0
271.2	91.0
271.0	110.0
270.8	123.0
270.6	109.0
270.4	102.0
270.2	102.0
270.0	114.0
269.8	94.0
269.6	121.0
269.4	119.0
269.2	107.0
269.0	100.0
268.8	104.0
268.6	104.0
268.4	99.0
268.2	86.0
268.0	91.0
267.8	90.0
267.6	76.0
267.4	91.0
267.2	95.0
267.0	75.0
266.8	84.0
266.6	93.0
266.4	85.0
266.2	85.0
266.0	70.0
265.8	96.0
265.6	75.0
265.4	85.0
265.2	70.0
265.0	91.0
264.8	88.0
264.6	79.0
264.4	87.0
264.2	85.0
264.0	85.0
263.8	84.0
263.6	88.0
263.4	80.0
263.2	81.0
263.0	85.0
262.8	94.0
262.6	78.0
262.4	96.0
262.2	83.0
262.0	92.0
261.8	84.0
261.6	75.0
261.4	84.0
261.2	92.0
261.0	76.0
260.8	94.0
260.6	87.0
260.4	90.0
260.2	85.0
260.0	85.0
259.8	77.0
259.6	89.0
259.4	83.0
259.2	75.0
259.0	86.0
258.8	85.0
258.6	86.0
258.4	82.0
258.2	86.0
258.0	79.0
257.8	84.0
257.6	91.0
257.4	93.0
257.2	95.0
257.0	74.0
256.8	90.0
256.6	84.0
256.4	78.0
256.2	87.0
256.0	89.0
255.8	90.0
255.6	88.0
255.4	85.0
255.2	80.0
255.0	81.0