File: XPS/Casa format/MX-HT 0p1 20Ap location X1 in image_MXHT0p120ApC1s_C1s.txt
BE/eV	PE: 20.0 eV
295.0	867.0
294.9	804.0
294.8	804.0
294.7	836.0
294.6	812.0
294.5	827.0
294.4	824.0
294.3	822.0
294.2	889.0
294.1	906.0
294.0	841.0
293.9	862.0
293.8	897.0
293.7	888.0
293.6	878.0
293.5	923.0
293.4	929.0
293.3	915.0
293.2	873.0
293.1	913.0
293.0	931.0
292.9	940.0
292.8	934.0
292.7	981.0
292.6	944.0
292.5	957.0
292.4	998.0
292.3	990.0
292.2	1049.0
292.1	1034.0
292.0	1068.0
291.9	1073.0
291.8	1098.0
291.7	1079.0
291.6	1109.0
291.5	1131.0
291.4	1169.0
291.3	1190.0
291.2	1194.0
291.1	1178.0
291.0	1249.0
290.9	1287.0
290.8	1276.0
290.7	1268.0
290.6	1291.0
290.5	1264.0
290.4	1272.0
290.3	1303.0
290.2	1298.0
290.1	1241.0
290.0	1262.0
289.9	1237.0
289.8	1294.0
289.7	1270.0
289.6	1223.0
289.5	1210.0
289.4	1272.0
289.3	1215.0
289.2	1196.0
289.1	1207.0
289.0	1162.0
288.9	1191.0
288.8	1195.0
288.7	1190.0
288.6	1150.0
288.5	1184.0
288.4	1211.0
288.3	1174.0
288.2	1193.0
288.1	1201.0
288.0	1201.0
287.9	1241.0
287.8	1207.0
287.7	1249.0
287.6	1259.0
287.5	1219.0
287.4	1229.0
287.3	1252.0
287.2	1278.0
287.1	1301.0
287.0	1292.0
286.9	1326.0
286.8	1451.0
286.7	1439.0
286.6	1465.0
286.5	1543.0
286.4	1554.0
286.3	1629.0
286.2	1686.0
286.1	1793.0
286.0	1787.0
285.9	1810.0
285.8	1868.0
285.7	2045.0
285.6	2169.0
285.5	2214.0
285.4	2261.0
285.3	2320.0
285.2	2517.0
285.1	2591.0
285.0	2791.0
284.9	2903.0
284.8	3155.0
284.7	3444.0
284.6	3838.0
284.5	4391.0
284.4	5409.0
284.3	6891.0
284.2	9289.0
284.1	12296.0
284.0	16014.0
283.9	19520.0
283.8	20348.0
283.7	17837.0
283.6	12697.0
283.5	8139.0
283.4	4609.0
283.3	2825.0
283.2	1966.0
283.1	1443.0
283.0	1067.0
282.9	868.0
282.8	740.0
282.7	639.0
282.6	531.0
282.5	493.0
282.4	466.0
282.3	418.0
282.2	423.0
282.1	420.0
282.0	433.0
281.9	452.0
281.8	553.0
281.7	660.0
281.6	814.0
281.5	994.0
281.4	1158.0
281.3	1169.0
281.2	1026.0
281.1	835.0
281.0	552.0
280.9	414.0
280.8	299.0
280.7	247.0
280.6	186.0
280.5	186.0
280.4	183.0
280.3	171.0
280.2	176.0
280.1	175.0
280.0	168.0
279.9	180.0
279.8	188.0
279.7	159.0
279.6	153.0
279.5	155.0
279.4	172.0
279.3	152.0
279.2	146.0
279.1	149.0
279.0	170.0
278.9	167.0
278.8	147.0
278.7	139.0
278.6	139.0
278.5	162.0
278.4	168.0
278.3	159.0
278.2	148.0
278.1	148.0
278.0	151.0
277.9	163.0
277.8	158.0
277.7	139.0
277.6	138.0
277.5	145.0
277.4	157.0
277.3	162.0
277.2	163.0
277.1	141.0
277.0	147.0