File: XPS/Casa format/MX-HT 0p5 20Ap location H1 in image_MXHT0p520ApCl2s_Cl2s.txt
BE/eV	PE: 20.0 eV
285.0	1223.0
284.8	1408.0
284.6	1803.0
284.4	2596.0
284.2	4400.0
284.0	7111.0
283.8	6311.0
283.6	2929.0
283.4	1271.0
283.2	708.0
283.0	518.0
282.8	428.0
282.6	380.0
282.4	376.0
282.2	390.0
282.0	447.0
281.8	602.0
281.6	1059.0
281.4	1470.0
281.2	1121.0
281.0	504.0
280.8	262.0
280.6	184.0
280.4	170.0
280.2	158.0
280.0	152.0
279.8	166.0
279.6	161.0
279.4	148.0
279.2	145.0
279.0	147.0
278.8	158.0
278.6	142.0
278.4	137.0
278.2	155.0
278.0	154.0
277.8	152.0
277.6	143.0
277.4	147.0
277.2	148.0
277.0	131.0
276.8	133.0
276.6	137.0
276.4	157.0
276.2	129.0
276.0	134.0
275.8	133.0
275.6	140.0
275.4	145.0
275.2	167.0
275.0	151.0
274.8	150.0
274.6	157.0
274.4	157.0
274.2	141.0
274.0	134.0
273.8	146.0
273.6	127.0
273.4	148.0
273.2	145.0
273.0	152.0
272.8	156.0
272.6	147.0
272.4	152.0
272.2	164.0
272.0	150.0
271.8	160.0
271.6	146.0
271.4	166.0
271.2	177.0
271.0	162.0
270.8	186.0
270.6	173.0
270.4	170.0
270.2	180.0
270.0	191.0
269.8	191.0
269.6	195.0
269.4	190.0
269.2	183.0
269.0	179.0
268.8	182.0
268.6	159.0
268.4	167.0
268.2	167.0
268.0	165.0
267.8	158.0
267.6	155.0
267.4	150.0
267.2	148.0
267.0	150.0
266.8	158.0
266.6	140.0
266.4	149.0
266.2	145.0
266.0	161.0
265.8	133.0
265.6	145.0
265.4	145.0
265.2	149.0
265.0	154.0
264.8	127.0
264.6	135.0
264.4	144.0
264.2	144.0
264.0	123.0
263.8	131.0
263.6	147.0
263.4	139.0
263.2	139.0
263.0	133.0
262.8	131.0
262.6	140.0
262.4	159.0
262.2	136.0
262.0	130.0
261.8	135.0
261.6	133.0
261.4	140.0
261.2	146.0
261.0	125.0
260.8	150.0
260.6	133.0
260.4	145.0
260.2	136.0
260.0	133.0
259.8	163.0
259.6	132.0
259.4	138.0
259.2	146.0
259.0	168.0
258.8	169.0
258.6	145.0
258.4	154.0
258.2	144.0
258.0	142.0
257.8	139.0
257.6	138.0
257.4	151.0
257.2	135.0
257.0	129.0
256.8	146.0
256.6	149.0
256.4	154.0
256.2	112.0
256.0	156.0
255.8	142.0
255.6	137.0
255.4	135.0
255.2	140.0
255.0	136.0