File: XPS/Casa format/MX-HT 0p1 20Ap location X1 in image_MXHT0p120Apwide_wide.txt
BE/eV	PE: 160.0 eV
1200.0	55185.0
1195.0	55123.0
1190.0	55981.0
1185.0	56594.0
1180.0	57237.0
1175.0	58398.0
1170.0	58767.0
1165.0	59451.0
1160.0	60315.0
1155.0	61605.0
1150.0	62331.0
1145.0	62163.0
1140.0	62767.0
1135.0	65243.0
1130.0	66303.0
1125.0	66875.0
1120.0	66394.0
1115.0	66378.0
1110.0	69760.0
1105.0	75773.0
1100.0	72015.0
1095.0	57446.0
1090.0	52665.0
1085.0	51148.0
1080.0	51506.0
1075.0	53699.0
1070.0	58947.0
1065.0	54874.0
1060.0	47491.0
1055.0	46942.0
1050.0	46884.0
1045.0	47499.0
1040.0	47921.0
1035.0	48741.0
1030.0	48039.0
1025.0	48248.0
1020.0	48715.0
1015.0	49362.0
1010.0	49460.0
1005.0	50330.0
1000.0	51634.0
995.0	52554.0
990.0	51668.0
985.0	51048.0
980.0	52473.0
975.0	59301.0
970.0	54569.0
965.0	47242.0
960.0	45402.0
955.0	45589.0
950.0	45416.0
945.0	45813.0
940.0	45861.0
935.0	46306.0
930.0	46895.0
925.0	46668.0
920.0	47565.0
915.0	47784.0
910.0	47963.0
905.0	47903.0
900.0	48786.0
895.0	48710.0
890.0	49186.0
885.0	49506.0
880.0	49763.0
875.0	50666.0
870.0	50546.0
865.0	50310.0
860.0	51023.0
855.0	53171.0
850.0	51306.0
845.0	51917.0
840.0	51190.0
835.0	52915.0
830.0	56539.0
825.0	52206.0
820.0	49597.0
815.0	50299.0
810.0	50542.0
805.0	50917.0
800.0	50741.0
795.0	51130.0
790.0	51203.0
785.0	51501.0
780.0	51939.0
775.0	52001.0
770.0	52507.0
765.0	52583.0
760.0	53162.0
755.0	53399.0
750.0	53516.0
745.0	53952.0
740.0	54489.0
735.0	54536.0
730.0	55085.0
725.0	55005.0
720.0	55299.0
715.0	55919.0
710.0	56652.0
705.0	56684.0
700.0	55499.0
695.0	55689.0
690.0	56504.0
685.0	71799.0
680.0	55507.0
675.0	55784.0
670.0	55643.0
665.0	56251.0
660.0	56610.0
655.0	56852.0
650.0	57051.0
645.0	57668.0
640.0	58320.0
635.0	58405.0
630.0	59417.0
625.0	59454.0
620.0	59864.0
615.0	60561.0
610.0	60976.0
605.0	61086.0
600.0	61354.0
595.0	62309.0
590.0	63142.0
585.0	64510.0
580.0	65083.0
575.0	64967.0
570.0	64790.0
565.0	69811.0
560.0	69587.0
555.0	60875.0
550.0	58867.0
545.0	58886.0
540.0	57853.0
535.0	59522.0
530.0	84385.0
525.0	54336.0
520.0	54345.0
515.0	54420.0
510.0	55321.0
505.0	55545.0
500.0	55373.0
495.0	55347.0
490.0	57012.0
485.0	58845.0
480.0	60817.0
475.0	61357.0
470.0	60310.0
465.0	62783.0
460.0	75104.0
455.0	87295.0
450.0	35528.0
445.0	34574.0
440.0	34755.0
435.0	34683.0
430.0	34641.0
425.0	34676.0
420.0	34927.0
415.0	34785.0
410.0	35008.0
405.0	35418.0
400.0	36309.0
395.0	35247.0
390.0	35405.0
385.0	35479.0
380.0	35722.0
375.0	35920.0
370.0	35916.0
365.0	35585.0
360.0	36002.0
355.0	36279.0
350.0	36794.0
345.0	36981.0
340.0	37173.0
335.0	35883.0
330.0	34757.0
325.0	36045.0
320.0	38953.0
315.0	40066.0
310.0	38896.0
305.0	31086.0
300.0	22755.0
295.0	22773.0
290.0	36015.0
285.0	87351.0
280.0	12719.0
275.0	4417.0
270.0	5128.0
265.0	4191.0
260.0	4074.0
255.0	4206.0
250.0	4191.0
245.0	4274.0
240.0	4091.0
235.0	4140.0
230.0	4313.0
225.0	4473.0
220.0	4344.0
215.0	4291.0
210.0	4300.0
205.0	4340.0
200.0	5806.0
195.0	4283.0
190.0	4236.0
185.0	4245.0
180.0	4315.0
175.0	4336.0
170.0	4517.0
165.0	4479.0
160.0	4568.0
155.0	4688.0
150.0	4737.0
145.0	4607.0
140.0	4758.0
135.0	4733.0
130.0	4795.0
125.0	4841.0
120.0	4869.0
115.0	5084.0
110.0	5027.0
105.0	5237.0
100.0	5565.0
95.0	5101.0
90.0	5541.0
85.0	5809.0
80.0	5792.0
75.0	5656.0
70.0	5349.0
65.0	5763.0
60.0	8274.0
55.0	5496.0
50.0	5247.0
45.0	5032.0
40.0	5320.0
35.0	10129.0
30.0	3012.0
25.0	2308.0
20.0	3227.0
15.0	2458.0
10.0	2049.0
5.0	1649.0
0.0	193.0
-5.0	6.0