File: XPS/Casa format/MX-HT 0p1 20Ap location X1 in image_MXHT0p120ApTi2p_Ti2p.txt
BE/eV	PE: 20.0 eV
470.0	19120.0
469.9	19185.0
469.8	18963.0
469.7	18836.0
469.6	19113.0
469.5	19047.0
469.4	19025.0
469.3	18926.0
469.2	18858.0
469.1	18868.0
469.0	18854.0
468.9	19087.0
468.8	18797.0
468.7	18613.0
468.6	18858.0
468.5	18737.0
468.4	18878.0
468.3	18783.0
468.2	18746.0
468.1	18813.0
468.0	18714.0
467.9	18762.0
467.8	18783.0
467.7	18777.0
467.6	18726.0
467.5	18683.0
467.4	18645.0
467.3	18820.0
467.2	18644.0
467.1	18630.0
467.0	18631.0
466.9	18756.0
466.8	18678.0
466.7	18718.0
466.6	18780.0
466.5	18858.0
466.4	18862.0
466.3	18839.0
466.2	18736.0
466.1	18904.0
466.0	18959.0
465.9	19061.0
465.8	19305.0
465.7	19216.0
465.6	19181.0
465.5	19454.0
465.4	19604.0
465.3	19666.0
465.2	20016.0
465.1	20175.0
465.0	20089.0
464.9	20470.0
464.8	20760.0
464.7	20610.0
464.6	20555.0
464.5	20382.0
464.4	20647.0
464.3	20647.0
464.2	20831.0
464.1	20667.0
464.0	20607.0
463.9	20659.0
463.8	20878.0
463.7	20651.0
463.6	20590.0
463.5	20608.0
463.4	20744.0
463.3	20664.0
463.2	20685.0
463.1	20694.0
463.0	20780.0
462.9	21026.0
462.8	21125.0
462.7	21274.0
462.6	21637.0
462.5	21864.0
462.4	21877.0
462.3	22286.0
462.2	22313.0
462.1	22615.0
462.0	22469.0
461.9	23044.0
461.8	23018.0
461.7	23595.0
461.6	23515.0
461.5	23988.0
461.4	24067.0
461.3	24418.0
461.2	24634.0
461.1	24662.0
461.0	24995.0
460.9	24951.0
460.8	24643.0
460.7	25086.0
460.6	25221.0
460.5	25053.0
460.4	24837.0
460.3	24244.0
460.2	23959.0
460.1	23336.0
460.0	22943.0
459.9	22433.0
459.8	21919.0
459.7	21822.0
459.6	21815.0
459.5	21918.0
459.4	22127.0
459.3	22829.0
459.2	23164.0
459.1	23708.0
459.0	24592.0
458.9	25366.0
458.8	25531.0
458.7	25740.0
458.6	25831.0
458.5	25736.0
458.4	25464.0
458.3	24871.0
458.2	23902.0
458.1	23113.0
458.0	22268.0
457.9	21643.0
457.8	21419.0
457.7	20893.0
457.6	20611.0
457.5	20549.0
457.4	20506.0
457.3	20867.0
457.2	21054.0
457.1	21180.0
457.0	21551.0
456.9	22251.0
456.8	22603.0
456.7	23158.0
456.6	23539.0
456.5	23984.0
456.4	24427.0
456.3	25041.0
456.2	25741.0
456.1	26377.0
456.0	26843.0
455.9	27501.0
455.8	28059.0
455.7	28625.0
455.6	29394.0
455.5	29472.0
455.4	30337.0
455.3	30711.0
455.2	31212.0
455.1	31557.0
455.0	31977.0
454.9	32152.0
454.8	32402.0
454.7	32154.0
454.6	31890.0
454.5	31434.0
454.4	30893.0
454.3	30153.0
454.2	28802.0
454.1	26429.0
454.0	23064.0
453.9	19633.0
453.8	16888.0
453.7	15025.0
453.6	13894.0
453.5	13188.0
453.4	12763.0
453.3	12574.0
453.2	12392.0
453.1	12416.0
453.0	12366.0
452.9	12138.0
452.8	12067.0
452.7	12092.0
452.6	12020.0
452.5	11880.0
452.4	11736.0
452.3	11947.0
452.2	11853.0
452.1	11840.0
452.0	11828.0
451.9	11817.0
451.8	11860.0
451.7	11815.0
451.6	11681.0
451.5	11820.0
451.4	11704.0
451.3	11545.0
451.2	11808.0
451.1	11609.0
451.0	11585.0
450.9	11605.0
450.8	11570.0
450.7	11642.0
450.6	11634.0
450.5	11736.0
450.4	11614.0
450.3	11660.0
450.2	11682.0
450.1	11652.0
450.0	11529.0