File: XPS/Casa format/MX-HT 0p1 20Ap location X1 in image_MXHT0p120ApCl2p_Cl2p.txt
BE/eV	PE: 20.0 eV
208.0	952.0
207.9	1005.0
207.8	1037.0
207.7	1020.0
207.6	1051.0
207.5	1028.0
207.4	962.0
207.3	1000.0
207.2	1038.0
207.1	1026.0
207.0	1054.0
206.9	1036.0
206.8	1047.0
206.7	1027.0
206.6	1035.0
206.5	991.0
206.4	1040.0
206.3	974.0
206.2	1018.0
206.1	1033.0
206.0	1049.0
205.9	1035.0
205.8	1036.0
205.7	1036.0
205.6	1019.0
205.5	1041.0
205.4	1051.0
205.3	1000.0
205.2	1065.0
205.1	1075.0
205.0	1051.0
204.9	1054.0
204.8	1019.0
204.7	980.0
204.6	965.0
204.5	1000.0
204.4	1005.0
204.3	1039.0
204.2	1048.0
204.1	1042.0
204.0	997.0
203.9	1029.0
203.8	1045.0
203.7	992.0
203.6	988.0
203.5	1026.0
203.4	1029.0
203.3	1042.0
203.2	1086.0
203.1	1049.0
203.0	1019.0
202.9	1051.0
202.8	1066.0
202.7	1077.0
202.6	1075.0
202.5	1017.0
202.4	1017.0
202.3	1020.0
202.2	1085.0
202.1	1052.0
202.0	1016.0
201.9	1080.0
201.8	1054.0
201.7	1057.0
201.6	1052.0
201.5	1100.0
201.4	1117.0
201.3	1118.0
201.2	1165.0
201.1	1151.0
201.0	1239.0
200.9	1185.0
200.8	1213.0
200.7	1274.0
200.6	1320.0
200.5	1389.0
200.4	1473.0
200.3	1544.0
200.2	1500.0
200.1	1520.0
200.0	1502.0
199.9	1492.0
199.8	1385.0
199.7	1356.0
199.6	1326.0
199.5	1243.0
199.4	1211.0
199.3	1257.0
199.2	1363.0
199.1	1466.0
199.0	1522.0
198.9	1683.0
198.8	1766.0
198.7	1867.0
198.6	2031.0
198.5	1911.0
198.4	1872.0
198.3	1726.0
198.2	1534.0
198.1	1409.0
198.0	1235.0
197.9	1177.0
197.8	1125.0
197.7	1027.0
197.6	1017.0
197.5	1005.0
197.4	1068.0
197.3	1019.0
197.2	1013.0
197.1	996.0
197.0	1038.0
196.9	1001.0
196.8	1006.0
196.7	1001.0
196.6	986.0
196.5	981.0
196.4	1010.0
196.3	1022.0
196.2	1022.0
196.1	994.0
196.0	1026.0
195.9	1027.0
195.8	1032.0
195.7	996.0
195.6	989.0
195.5	961.0
195.4	1006.0
195.3	1040.0
195.2	975.0
195.1	947.0
195.0	960.0