File: XPS/Casa format/MX-HT 0p5 20Ap location H1 in image_MXHT0p520ApTi3p_Ti3p.txt
BE/eV	PE: 20.0 eV
49.0	860.0
48.8	847.0
48.6	831.0
48.4	861.0
48.2	806.0
48.0	836.0
47.8	835.0
47.6	821.0
47.4	831.0
47.2	821.0
47.0	834.0
46.8	836.0
46.6	753.0
46.4	841.0
46.2	797.0
46.0	806.0
45.8	826.0
45.6	780.0
45.4	794.0
45.2	785.0
45.0	766.0
44.8	808.0
44.6	722.0
44.4	759.0
44.2	754.0
44.0	754.0
43.8	747.0
43.6	750.0
43.4	729.0
43.2	753.0
43.0	712.0
42.8	729.0
42.6	714.0
42.4	772.0
42.2	738.0
42.0	765.0
41.8	741.0
41.6	725.0
41.4	808.0
41.2	781.0
41.0	795.0
40.8	753.0
40.6	774.0
40.4	772.0
40.2	791.0
40.0	819.0
39.8	841.0
39.6	903.0
39.4	879.0
39.2	912.0
39.0	930.0
38.8	986.0
38.6	1042.0
38.4	1116.0
38.2	1107.0
38.0	1193.0
37.8	1299.0
37.6	1321.0
37.4	1426.0
37.2	1507.0
37.0	1464.0
36.8	1514.0
36.6	1509.0
36.4	1600.0
36.2	1592.0
36.0	1645.0
35.8	1759.0
35.6	1815.0
35.4	1849.0
35.2	2089.0
35.0	2071.0
34.8	2208.0
34.6	2263.0
34.4	2228.0
34.2	2267.0
34.0	2187.0
33.8	2190.0
33.6	1988.0
33.4	1771.0
33.2	1564.0
33.0	1208.0
32.8	950.0
32.6	772.0
32.4	605.0
32.2	555.0
32.0	491.0
31.8	435.0
31.6	415.0
31.4	409.0
31.2	397.0
31.0	401.0
30.8	407.0
30.6	393.0
30.4	397.0
30.2	423.0
30.0	441.0
29.8	429.0
29.6	463.0
29.4	460.0
29.2	465.0
29.0	497.0
28.8	434.0
28.6	397.0
28.4	405.0
28.2	351.0
28.0	337.0
27.8	302.0
27.6	292.0
27.4	285.0
27.2	270.0
27.0	285.0
26.8	268.0
26.6	264.0
26.4	277.0
26.2	243.0
26.0	240.0
25.8	266.0
25.6	267.0
25.4	285.0
25.2	286.0
25.0	259.0
24.8	288.0
24.6	271.0
24.4	267.0
24.2	264.0
24.0	285.0
23.8	307.0
23.6	294.0
23.4	296.0
23.2	307.0
23.0	350.0
22.8	331.0
22.6	369.0
22.4	378.0
22.2	383.0
22.0	373.0
21.8	401.0
21.6	424.0
21.4	419.0
21.2	442.0
21.0	391.0
20.8	385.0
20.6	379.0
20.4	359.0
20.2	335.0
20.0	337.0
19.8	322.0
19.6	325.0
19.4	297.0
19.2	271.0
19.0	282.0