File: XPS/Casa format/MX-HT 0p5 20Ap location H1 in image_MXHT0p520ApTi3s_Ti3s.txt
BE/eV	PE: 20.0 eV
74.0	940.0
73.8	937.0
73.6	911.0
73.4	930.0
73.2	921.0
73.0	962.0
72.8	928.0
72.6	946.0
72.4	912.0
72.2	966.0
72.0	923.0
71.8	875.0
71.6	926.0
71.4	892.0
71.2	906.0
71.0	927.0
70.8	857.0
70.6	886.0
70.4	894.0
70.2	833.0
70.0	885.0
69.8	890.0
69.6	866.0
69.4	863.0
69.2	865.0
69.0	909.0
68.8	841.0
68.6	882.0
68.4	870.0
68.2	879.0
68.0	869.0
67.8	860.0
67.6	870.0
67.4	839.0
67.2	820.0
67.0	909.0
66.8	928.0
66.6	873.0
66.4	870.0
66.2	900.0
66.0	908.0
65.8	933.0
65.6	934.0
65.4	911.0
65.2	930.0
65.0	941.0
64.8	951.0
64.6	942.0
64.4	999.0
64.2	1025.0
64.0	1046.0
63.8	1032.0
63.6	1076.0
63.4	1076.0
63.2	1084.0
63.0	1186.0
62.8	1156.0
62.6	1171.0
62.4	1219.0
62.2	1311.0
62.0	1310.0
61.8	1320.0
61.6	1343.0
61.4	1340.0
61.2	1400.0
61.0	1439.0
60.8	1456.0
60.6	1525.0
60.4	1520.0
60.2	1621.0
60.0	1623.0
59.8	1619.0
59.6	1650.0
59.4	1652.0
59.2	1617.0
59.0	1639.0
58.8	1557.0
58.6	1535.0
58.4	1439.0
58.2	1323.0
58.0	1288.0
57.8	1191.0
57.6	1147.0
57.4	1128.0
57.2	1055.0
57.0	1006.0
56.8	972.0
56.6	993.0
56.4	905.0
56.2	907.0
56.0	931.0
55.8	919.0
55.6	931.0
55.4	831.0
55.2	835.0
55.0	879.0
54.8	890.0
54.6	868.0
54.4	825.0
54.2	848.0
54.0	828.0
53.8	843.0
53.6	840.0
53.4	823.0
53.2	858.0
53.0	863.0
52.8	800.0
52.6	866.0
52.4	822.0
52.2	800.0
52.0	846.0
51.8	790.0
51.6	860.0
51.4	861.0
51.2	850.0
51.0	882.0
50.8	811.0
50.6	876.0
50.4	832.0
50.2	869.0
50.0	823.0
49.8	862.0
49.6	837.0
49.4	845.0
49.2	827.0
49.0	855.0
48.8	868.0
48.6	840.0
48.4	812.0
48.2	819.0
48.0	792.0
47.8	820.0
47.6	851.0
47.4	825.0
47.2	807.0
47.0	793.0
46.8	804.0
46.6	856.0
46.4	797.0
46.2	816.0
46.0	797.0
45.8	802.0
45.6	747.0
45.4	768.0
45.2	790.0
45.0	747.0
44.8	766.0
44.6	762.0
44.4	757.0
44.2	745.0
44.0	745.0