File: XPS/Casa format/MX-HT 0p5 20Ap location H1 in image_MXHT0p520ApC1s_C1s.txt
BE/eV	PE: 20.0 eV
295.0	717.0
294.9	746.0
294.8	701.0
294.7	691.0
294.6	707.0
294.5	723.0
294.4	710.0
294.3	723.0
294.2	730.0
294.1	744.0
294.0	755.0
293.9	722.0
293.8	751.0
293.7	732.0
293.6	720.0
293.5	745.0
293.4	784.0
293.3	759.0
293.2	754.0
293.1	762.0
293.0	752.0
292.9	756.0
292.8	776.0
292.7	797.0
292.6	820.0
292.5	833.0
292.4	801.0
292.3	800.0
292.2	808.0
292.1	801.0
292.0	809.0
291.9	810.0
291.8	846.0
291.7	838.0
291.6	897.0
291.5	886.0
291.4	900.0
291.3	952.0
291.2	930.0
291.1	864.0
291.0	901.0
290.9	937.0
290.8	908.0
290.7	954.0
290.6	922.0
290.5	946.0
290.4	927.0
290.3	932.0
290.2	961.0
290.1	912.0
290.0	940.0
289.9	926.0
289.8	886.0
289.7	882.0
289.6	913.0
289.5	940.0
289.4	926.0
289.3	931.0
289.2	890.0
289.1	912.0
289.0	928.0
288.9	954.0
288.8	939.0
288.7	908.0
288.6	923.0
288.5	962.0
288.4	964.0
288.3	924.0
288.2	885.0
288.1	910.0
288.0	936.0
287.9	939.0
287.8	898.0
287.7	975.0
287.6	956.0
287.5	923.0
287.4	936.0
287.3	923.0
287.2	944.0
287.1	978.0
287.0	998.0
286.9	956.0
286.8	971.0
286.7	1057.0
286.6	1053.0
286.5	1113.0
286.4	1150.0
286.3	1152.0
286.2	1226.0
286.1	1291.0
286.0	1295.0
285.9	1324.0
285.8	1394.0
285.7	1420.0
285.6	1482.0
285.5	1503.0
285.4	1596.0
285.3	1758.0
285.2	1830.0
285.1	1905.0
285.0	2066.0
284.9	2053.0
284.8	2341.0
284.7	2517.0
284.6	2765.0
284.5	3204.0
284.4	3980.0
284.3	5113.0
284.2	6802.0
284.1	9072.0
284.0	11266.0
283.9	12446.0
283.8	11495.0
283.7	8681.0
283.6	5484.0
283.5	3421.0
283.4	2277.0
283.3	1591.0
283.2	1271.0
283.1	1050.0
283.0	894.0
282.9	793.0
282.8	761.0
282.7	660.0
282.6	618.0
282.5	607.0
282.4	611.0
282.3	608.0
282.2	654.0
282.1	649.0
282.0	707.0
281.9	781.0
281.8	965.0
281.7	1235.0
281.6	1658.0
281.5	2097.0
281.4	2442.0
281.3	2331.0
281.2	1954.0
281.1	1376.0
281.0	946.0
280.9	619.0
280.8	454.0
280.7	395.0
280.6	323.0
280.5	288.0
280.4	293.0
280.3	317.0
280.2	284.0
280.1	271.0
280.0	252.0
279.9	267.0
279.8	261.0
279.7	256.0
279.6	266.0
279.5	249.0
279.4	252.0
279.3	261.0
279.2	233.0
279.1	239.0
279.0	257.0
278.9	243.0
278.8	238.0
278.7	244.0
278.6	242.0
278.5	237.0
278.4	251.0
278.3	266.0
278.2	258.0
278.1	252.0
278.0	245.0
277.9	272.0
277.8	229.0
277.7	244.0
277.6	265.0
277.5	260.0
277.4	264.0
277.3	242.0
277.2	221.0
277.1	220.0
277.0	229.0