File: XPS/Casa format/MX-HT 0p5 20Ap location H1 in image_MXHT0p520ApCl2p_Cl2p.txt
BE/eV	PE: 20.0 eV
208.0	1772.0
207.9	1721.0
207.8	1750.0
207.7	1742.0
207.6	1745.0
207.5	1695.0
207.4	1781.0
207.3	1660.0
207.2	1741.0
207.1	1696.0
207.0	1731.0
206.9	1736.0
206.8	1690.0
206.7	1688.0
206.6	1749.0
206.5	1704.0
206.4	1710.0
206.3	1721.0
206.2	1705.0
206.1	1743.0
206.0	1737.0
205.9	1737.0
205.8	1675.0
205.7	1708.0
205.6	1732.0
205.5	1674.0
205.4	1695.0
205.3	1773.0
205.2	1741.0
205.1	1658.0
205.0	1705.0
204.9	1723.0
204.8	1721.0
204.7	1734.0
204.6	1716.0
204.5	1729.0
204.4	1765.0
204.3	1770.0
204.2	1690.0
204.1	1784.0
204.0	1720.0
203.9	1731.0
203.8	1744.0
203.7	1718.0
203.6	1725.0
203.5	1776.0
203.4	1739.0
203.3	1754.0
203.2	1681.0
203.1	1778.0
203.0	1843.0
202.9	1753.0
202.8	1740.0
202.7	1733.0
202.6	1744.0
202.5	1801.0
202.4	1704.0
202.3	1821.0
202.2	1767.0
202.1	1749.0
202.0	1816.0
201.9	1860.0
201.8	1814.0
201.7	1874.0
201.6	1902.0
201.5	1875.0
201.4	1906.0
201.3	1939.0
201.2	1924.0
201.1	2024.0
201.0	2004.0
200.9	2066.0
200.8	2194.0
200.7	2276.0
200.6	2507.0
200.5	2700.0
200.4	2834.0
200.3	2923.0
200.2	2937.0
200.1	2775.0
200.0	2645.0
199.9	2525.0
199.8	2349.0
199.7	2300.0
199.6	2216.0
199.5	2202.0
199.4	2215.0
199.3	2276.0
199.2	2437.0
199.1	2711.0
199.0	2965.0
198.9	3203.0
198.8	3495.0
198.7	3653.0
198.6	3698.0
198.5	3472.0
198.4	3182.0
198.3	2743.0
198.2	2546.0
198.1	2204.0
198.0	2003.0
197.9	1926.0
197.8	1782.0
197.7	1643.0
197.6	1760.0
197.5	1728.0
197.4	1654.0
197.3	1613.0
197.2	1658.0
197.1	1714.0
197.0	1687.0
196.9	1693.0
196.8	1633.0
196.7	1619.0
196.6	1628.0
196.5	1658.0
196.4	1717.0
196.3	1685.0
196.2	1646.0
196.1	1631.0
196.0	1669.0
195.9	1703.0
195.8	1674.0
195.7	1669.0
195.6	1674.0
195.5	1663.0
195.4	1715.0
195.3	1665.0
195.2	1651.0
195.1	1690.0
195.0	1638.0