File: XPS/Casa format/MX-HT 0p1 20Ap location X1 in image_MXHT0p120ApTi3p_Ti3p.txt
BE/eV	PE: 20.0 eV
49.0	506.0
48.8	517.0
48.6	507.0
48.4	493.0
48.2	502.0
48.0	522.0
47.8	487.0
47.6	465.0
47.4	497.0
47.2	479.0
47.0	491.0
46.8	520.0
46.6	504.0
46.4	501.0
46.2	499.0
46.0	502.0
45.8	465.0
45.6	484.0
45.4	497.0
45.2	488.0
45.0	496.0
44.8	473.0
44.6	458.0
44.4	465.0
44.2	449.0
44.0	447.0
43.8	459.0
43.6	419.0
43.4	478.0
43.2	470.0
43.0	443.0
42.8	461.0
42.6	464.0
42.4	448.0
42.2	452.0
42.0	476.0
41.8	463.0
41.6	448.0
41.4	477.0
41.2	465.0
41.0	471.0
40.8	501.0
40.6	466.0
40.4	513.0
40.2	529.0
40.0	500.0
39.8	517.0
39.6	520.0
39.4	542.0
39.2	551.0
39.0	567.0
38.8	575.0
38.6	579.0
38.4	662.0
38.2	674.0
38.0	739.0
37.8	737.0
37.6	760.0
37.4	786.0
37.2	863.0
37.0	853.0
36.8	888.0
36.6	903.0
36.4	877.0
36.2	856.0
36.0	886.0
35.8	926.0
35.6	949.0
35.4	978.0
35.2	963.0
35.0	1075.0
34.8	1133.0
34.6	1173.0
34.4	1153.0
34.2	1191.0
34.0	1170.0
33.8	1122.0
33.6	1114.0
33.4	970.0
33.2	880.0
33.0	767.0
32.8	650.0
32.6	488.0
32.4	417.0
32.2	389.0
32.0	317.0
31.8	297.0
31.6	287.0
31.4	275.0
31.2	273.0
31.0	280.0
30.8	279.0
30.6	273.0
30.4	253.0
30.2	276.0
30.0	294.0
29.8	302.0
29.6	297.0
29.4	323.0
29.2	318.0
29.0	317.0
28.8	322.0
28.6	288.0
28.4	309.0
28.2	275.0
28.0	261.0
27.8	265.0
27.6	245.0
27.4	236.0
27.2	222.0
27.0	223.0
26.8	222.0
26.6	227.0
26.4	213.0
26.2	223.0
26.0	227.0
25.8	223.0
25.6	236.0
25.4	199.0
25.2	250.0
25.0	235.0
24.8	230.0
24.6	235.0
24.4	250.0
24.2	225.0
24.0	259.0
23.8	247.0
23.6	279.0
23.4	267.0
23.2	258.0
23.0	295.0
22.8	270.0
22.6	295.0
22.4	310.0
22.2	300.0
22.0	338.0
21.8	328.0
21.6	345.0
21.4	363.0
21.2	366.0
21.0	355.0
20.8	357.0
20.6	367.0
20.4	353.0
20.2	323.0
20.0	309.0
19.8	311.0
19.6	332.0
19.4	329.0
19.2	335.0
19.0	309.0