File: XPS/Casa format/MX-UT 0p1 20Ap location M1 in image_MXUT0p120Apwide_wide.txt
BE/eV	PE: 160.0 eV
1200.0	36440.0
1195.0	36525.0
1190.0	36831.0
1185.0	37386.0
1180.0	37594.0
1175.0	38452.0
1170.0	38656.0
1165.0	38748.0
1160.0	39262.0
1155.0	39669.0
1150.0	40228.0
1145.0	40264.0
1140.0	40409.0
1135.0	40936.0
1130.0	41656.0
1125.0	42127.0
1120.0	41622.0
1115.0	41422.0
1110.0	42194.0
1105.0	45270.0
1100.0	44110.0
1095.0	38046.0
1090.0	36047.0
1085.0	35634.0
1080.0	35609.0
1075.0	36187.0
1070.0	38968.0
1065.0	37020.0
1060.0	34448.0
1055.0	34124.0
1050.0	34004.0
1045.0	34422.0
1040.0	34691.0
1035.0	35562.0
1030.0	35083.0
1025.0	35302.0
1020.0	35534.0
1015.0	35867.0
1010.0	36006.0
1005.0	36343.0
1000.0	36917.0
995.0	37154.0
990.0	37137.0
985.0	37206.0
980.0	37356.0
975.0	39428.0
970.0	38325.0
965.0	36011.0
960.0	35499.0
955.0	35606.0
950.0	36076.0
945.0	35711.0
940.0	36080.0
935.0	36439.0
930.0	36387.0
925.0	36809.0
920.0	36697.0
915.0	37267.0
910.0	37446.0
905.0	37442.0
900.0	37869.0
895.0	38116.0
890.0	38071.0
885.0	38476.0
880.0	39230.0
875.0	38963.0
870.0	39019.0
865.0	39166.0
860.0	39740.0
855.0	40476.0
850.0	39642.0
845.0	40063.0
840.0	39386.0
835.0	40270.0
830.0	41848.0
825.0	39911.0
820.0	39295.0
815.0	39635.0
810.0	39572.0
805.0	39611.0
800.0	39878.0
795.0	40155.0
790.0	40149.0
785.0	39942.0
780.0	40457.0
775.0	40854.0
770.0	40676.0
765.0	40939.0
760.0	41266.0
755.0	41292.0
750.0	41712.0
745.0	41826.0
740.0	41795.0
735.0	42217.0
730.0	42552.0
725.0	42547.0
720.0	42804.0
715.0	42824.0
710.0	43517.0
705.0	43163.0
700.0	43119.0
695.0	43054.0
690.0	43590.0
685.0	51762.0
680.0	42906.0
675.0	42799.0
670.0	43565.0
665.0	43542.0
660.0	43597.0
655.0	43504.0
650.0	44422.0
645.0	44324.0
640.0	44508.0
635.0	44600.0
630.0	45000.0
625.0	44668.0
620.0	45321.0
615.0	45697.0
610.0	45993.0
605.0	46268.0
600.0	46184.0
595.0	46154.0
590.0	47508.0
585.0	47941.0
580.0	47530.0
575.0	47967.0
570.0	47540.0
565.0	49294.0
560.0	50096.0
555.0	45693.0
550.0	45256.0
545.0	44994.0
540.0	44409.0
535.0	45434.0
530.0	52779.0
525.0	43645.0
520.0	43868.0
515.0	43820.0
510.0	44404.0
505.0	45026.0
500.0	44626.0
495.0	44377.0
490.0	45044.0
485.0	46142.0
480.0	47190.0
475.0	47084.0
470.0	46151.0
465.0	46441.0
460.0	51989.0
455.0	62636.0
450.0	34718.0
445.0	34586.0
440.0	34480.0
435.0	34674.0
430.0	34477.0
425.0	34944.0
420.0	35262.0
415.0	35079.0
410.0	35073.0
405.0	35058.0
400.0	36004.0
395.0	35807.0
390.0	35474.0
385.0	35610.0
380.0	35767.0
375.0	36384.0
370.0	36492.0
365.0	36372.0
360.0	36393.0
355.0	36767.0
350.0	37578.0
345.0	37347.0
340.0	37228.0
335.0	36459.0
330.0	35440.0
325.0	36765.0
320.0	39616.0
315.0	41396.0
310.0	39838.0
305.0	31815.0
300.0	23372.0
295.0	22254.0
290.0	33632.0
285.0	112525.0
280.0	7789.0
275.0	3242.0
270.0	3539.0
265.0	2842.0
260.0	2834.0
255.0	2849.0
250.0	2846.0
245.0	2846.0
240.0	2910.0
235.0	2868.0
230.0	2906.0
225.0	2981.0
220.0	2996.0
215.0	2975.0
210.0	2900.0
205.0	2906.0
200.0	3704.0
195.0	2883.0
190.0	2976.0
185.0	2854.0
180.0	2932.0
175.0	2937.0
170.0	3005.0
165.0	3053.0
160.0	3083.0
155.0	2996.0
150.0	3138.0
145.0	3087.0
140.0	3098.0
135.0	3149.0
130.0	3179.0
125.0	3226.0
120.0	3231.0
115.0	3323.0
110.0	3295.0
105.0	3380.0
100.0	3434.0
95.0	3392.0
90.0	3535.0
85.0	3632.0
80.0	3768.0
75.0	3692.0
70.0	3462.0
65.0	3509.0
60.0	5002.0
55.0	3384.0
50.0	3277.0
45.0	3296.0
40.0	3272.0
35.0	5910.0
30.0	2006.0
25.0	1634.0
20.0	2554.0
15.0	2251.0
10.0	1554.0
5.0	1008.0
0.0	119.0
-5.0	4.0