File: XPS/Casa format/MX-UT 0p1 20Ap location M1 in image_MXUT0p120ApTi3s_Ti3s.txt
BE/eV	PE: 20.0 eV
74.0	404.0
73.8	378.0
73.6	400.0
73.4	383.0
73.2	403.0
73.0	382.0
72.8	353.0
72.6	369.0
72.4	381.0
72.2	345.0
72.0	401.0
71.8	377.0
71.6	414.0
71.4	389.0
71.2	363.0
71.0	347.0
70.8	368.0
70.6	348.0
70.4	354.0
70.2	360.0
70.0	367.0
69.8	368.0
69.6	346.0
69.4	358.0
69.2	365.0
69.0	359.0
68.8	345.0
68.6	408.0
68.4	389.0
68.2	353.0
68.0	372.0
67.8	367.0
67.6	374.0
67.4	349.0
67.2	372.0
67.0	368.0
66.8	360.0
66.6	390.0
66.4	383.0
66.2	381.0
66.0	373.0
65.8	366.0
65.6	384.0
65.4	367.0
65.2	362.0
65.0	343.0
64.8	369.0
64.6	381.0
64.4	361.0
64.2	397.0
64.0	407.0
63.8	397.0
63.6	418.0
63.4	399.0
63.2	425.0
63.0	405.0
62.8	425.0
62.6	426.0
62.4	451.0
62.2	443.0
62.0	483.0
61.8	512.0
61.6	486.0
61.4	509.0
61.2	509.0
61.0	514.0
60.8	515.0
60.6	542.0
60.4	565.0
60.2	596.0
60.0	605.0
59.8	609.0
59.6	586.0
59.4	595.0
59.2	582.0
59.0	607.0
58.8	537.0
58.6	517.0
58.4	508.0
58.2	501.0
58.0	485.0
57.8	479.0
57.6	400.0
57.4	411.0
57.2	403.0
57.0	399.0
56.8	400.0
56.6	389.0
56.4	390.0
56.2	355.0
56.0	369.0
55.8	347.0
55.6	371.0
55.4	342.0
55.2	363.0
55.0	376.0
54.8	326.0
54.6	365.0
54.4	343.0
54.2	364.0
54.0	334.0
53.8	352.0
53.6	338.0
53.4	332.0
53.2	348.0
53.0	358.0
52.8	334.0
52.6	327.0
52.4	352.0
52.2	361.0
52.0	332.0
51.8	345.0
51.6	334.0
51.4	347.0
51.2	334.0
51.0	369.0
50.8	336.0
50.6	359.0
50.4	340.0
50.2	362.0
50.0	364.0
49.8	354.0
49.6	332.0
49.4	381.0
49.2	335.0
49.0	369.0
48.8	383.0
48.6	374.0
48.4	351.0
48.2	350.0
48.0	332.0
47.8	317.0
47.6	338.0
47.4	350.0
47.2	351.0
47.0	327.0
46.8	387.0
46.6	359.0
46.4	324.0
46.2	301.0
46.0	330.0
45.8	337.0
45.6	329.0
45.4	298.0
45.2	357.0
45.0	307.0
44.8	321.0
44.6	340.0
44.4	341.0
44.2	343.0
44.0	317.0