File: XPS/Casa format/MX-UT 0p5 20Ap location U1 in image-0.6287_MXUT0p520ApTi3s_Ti3s.txt
BE/eV	PE: 20.0 eV
74.0	454.0
73.8	413.0
73.6	411.0
73.4	469.0
73.2	439.0
73.0	430.0
72.8	439.0
72.6	475.0
72.4	419.0
72.2	450.0
72.0	464.0
71.8	445.0
71.6	447.0
71.4	468.0
71.2	419.0
71.0	462.0
70.8	412.0
70.6	483.0
70.4	432.0
70.2	422.0
70.0	428.0
69.8	404.0
69.6	398.0
69.4	445.0
69.2	415.0
69.0	414.0
68.8	445.0
68.6	442.0
68.4	439.0
68.2	406.0
68.0	445.0
67.8	393.0
67.6	432.0
67.4	457.0
67.2	437.0
67.0	424.0
66.8	419.0
66.6	424.0
66.4	451.0
66.2	426.0
66.0	423.0
65.8	438.0
65.6	421.0
65.4	437.0
65.2	468.0
65.0	410.0
64.8	422.0
64.6	433.0
64.4	445.0
64.2	453.0
64.0	439.0
63.8	437.0
63.6	476.0
63.4	471.0
63.2	493.0
63.0	475.0
62.8	485.0
62.6	528.0
62.4	578.0
62.2	511.0
62.0	570.0
61.8	571.0
61.6	561.0
61.4	585.0
61.2	592.0
61.0	604.0
60.8	648.0
60.6	615.0
60.4	685.0
60.2	680.0
60.0	689.0
59.8	692.0
59.6	740.0
59.4	722.0
59.2	752.0
59.0	753.0
58.8	713.0
58.6	663.0
58.4	622.0
58.2	624.0
58.0	600.0
57.8	567.0
57.6	533.0
57.4	491.0
57.2	475.0
57.0	493.0
56.8	454.0
56.6	435.0
56.4	446.0
56.2	459.0
56.0	473.0
55.8	426.0
55.6	420.0
55.4	442.0
55.2	454.0
55.0	443.0
54.8	444.0
54.6	442.0
54.4	420.0
54.2	401.0
54.0	432.0
53.8	429.0
53.6	389.0
53.4	407.0
53.2	395.0
53.0	427.0
52.8	420.0
52.6	395.0
52.4	427.0
52.2	408.0
52.0	414.0
51.8	400.0
51.6	406.0
51.4	389.0
51.2	441.0
51.0	396.0
50.8	425.0
50.6	399.0
50.4	415.0
50.2	412.0
50.0	415.0
49.8	410.0
49.6	408.0
49.4	407.0
49.2	410.0
49.0	411.0
48.8	400.0
48.6	380.0
48.4	419.0
48.2	408.0
48.0	416.0
47.8	418.0
47.6	434.0
47.4	405.0
47.2	404.0
47.0	420.0
46.8	395.0
46.6	408.0
46.4	390.0
46.2	357.0
46.0	396.0
45.8	401.0
45.6	430.0
45.4	381.0
45.2	399.0
45.0	383.0
44.8	413.0
44.6	366.0
44.4	366.0
44.2	367.0
44.0	376.0