File: XPS/Casa format/MX-UT 0p5 20Ap location U1 in image_MXUT0p520Apwide_wide.txt
BE/eV	PE: 160.0 eV
1200.0	43756.0
1195.0	44050.0
1190.0	44359.0
1185.0	45084.0
1180.0	45782.0
1175.0	46271.0
1170.0	46431.0
1165.0	46960.0
1160.0	47828.0
1155.0	48445.0
1150.0	48835.0
1145.0	49125.0
1140.0	48604.0
1135.0	50467.0
1130.0	51257.0
1125.0	51879.0
1120.0	50992.0
1115.0	50600.0
1110.0	52028.0
1105.0	56260.0
1100.0	54538.0
1095.0	44957.0
1090.0	42299.0
1085.0	41409.0
1080.0	41006.0
1075.0	42125.0
1070.0	46064.0
1065.0	43697.0
1060.0	38914.0
1055.0	38311.0
1050.0	38281.0
1045.0	38635.0
1040.0	39492.0
1035.0	39796.0
1030.0	39326.0
1025.0	39354.0
1020.0	39971.0
1015.0	39732.0
1010.0	40045.0
1005.0	40332.0
1000.0	40903.0
995.0	41344.0
990.0	41575.0
985.0	41296.0
980.0	41932.0
975.0	43936.0
970.0	42854.0
965.0	39957.0
960.0	39791.0
955.0	40201.0
950.0	39861.0
945.0	40161.0
940.0	40387.0
935.0	40561.0
930.0	40586.0
925.0	40907.0
920.0	41543.0
915.0	41541.0
910.0	41849.0
905.0	42048.0
900.0	42115.0
895.0	42354.0
890.0	42850.0
885.0	42990.0
880.0	43478.0
875.0	43926.0
870.0	43682.0
865.0	43798.0
860.0	44447.0
855.0	46000.0
850.0	44489.0
845.0	44982.0
840.0	44371.0
835.0	45348.0
830.0	47713.0
825.0	44469.0
820.0	43600.0
815.0	43978.0
810.0	43941.0
805.0	44340.0
800.0	44306.0
795.0	44260.0
790.0	44849.0
785.0	44755.0
780.0	45522.0
775.0	45268.0
770.0	45876.0
765.0	45890.0
760.0	46411.0
755.0	46230.0
750.0	46708.0
745.0	46845.0
740.0	47160.0
735.0	47322.0
730.0	47398.0
725.0	47488.0
720.0	47688.0
715.0	48333.0
710.0	48933.0
705.0	48704.0
700.0	48376.0
695.0	48151.0
690.0	48673.0
685.0	60304.0
680.0	48025.0
675.0	47985.0
670.0	47863.0
665.0	48294.0
660.0	48757.0
655.0	48903.0
650.0	49094.0
645.0	49241.0
640.0	49448.0
635.0	50119.0
630.0	50210.0
625.0	49864.0
620.0	50927.0
615.0	51301.0
610.0	51431.0
605.0	51379.0
600.0	51810.0
595.0	52190.0
590.0	53141.0
585.0	53547.0
580.0	53882.0
575.0	54489.0
570.0	53766.0
565.0	56487.0
560.0	57199.0
555.0	50132.0
550.0	49473.0
545.0	49234.0
540.0	48594.0
535.0	49255.0
530.0	59198.0
525.0	47517.0
520.0	47593.0
515.0	47794.0
510.0	48513.0
505.0	48913.0
500.0	48176.0
495.0	48531.0
490.0	49131.0
485.0	50913.0
480.0	52033.0
475.0	52288.0
470.0	50665.0
465.0	50807.0
460.0	60492.0
455.0	74166.0
450.0	32930.0
445.0	32441.0
440.0	32254.0
435.0	32459.0
430.0	32436.0
425.0	32918.0
420.0	32969.0
415.0	33132.0
410.0	32933.0
405.0	33065.0
400.0	34029.0
395.0	33434.0
390.0	33313.0
385.0	33634.0
380.0	33921.0
375.0	34053.0
370.0	34200.0
365.0	33943.0
360.0	34099.0
355.0	34575.0
350.0	35075.0
345.0	35528.0
340.0	35245.0
335.0	34324.0
330.0	33497.0
325.0	34166.0
320.0	36978.0
315.0	38732.0
310.0	37366.0
305.0	30507.0
300.0	22602.0
295.0	21290.0
290.0	32297.0
285.0	101321.0
280.0	9641.0
275.0	3975.0
270.0	4491.0
265.0	3752.0
260.0	3609.0
255.0	3603.0
250.0	3611.0
245.0	3705.0
240.0	3701.0
235.0	3669.0
230.0	3695.0
225.0	3815.0
220.0	3753.0
215.0	3897.0
210.0	3777.0
205.0	3816.0
200.0	4984.0
195.0	3653.0
190.0	3734.0
185.0	3676.0
180.0	3711.0
175.0	3815.0
170.0	3738.0
165.0	3815.0
160.0	3835.0
155.0	3962.0
150.0	3866.0
145.0	3990.0
140.0	3949.0
135.0	4053.0
130.0	4063.0
125.0	4232.0
120.0	4197.0
115.0	4236.0
110.0	4291.0
105.0	4423.0
100.0	4441.0
95.0	4320.0
90.0	4478.0
85.0	4739.0
80.0	4776.0
75.0	4739.0
70.0	4412.0
65.0	4643.0
60.0	6882.0
55.0	4474.0
50.0	4153.0
45.0	3932.0
40.0	4105.0
35.0	8403.0
30.0	2428.0
25.0	1786.0
20.0	2667.0
15.0	2238.0
10.0	1665.0
5.0	1231.0
0.0	141.0
-5.0	3.0