File: XPS/Casa format/MX-UT 0p1 20Ap location M1 in image_MXUT0p120ApCl2s_Cl2s.txt
BE/eV	PE: 20.0 eV
285.0	2787.0
284.8	4097.0
284.6	7470.0
284.4	11643.0
284.2	10858.0
284.0	4918.0
283.8	1650.0
283.6	812.0
283.4	464.0
283.2	283.0
283.0	221.0
282.8	204.0
282.6	196.0
282.4	204.0
282.2	222.0
282.0	373.0
281.8	424.0
281.6	334.0
281.4	152.0
281.2	116.0
281.0	89.0
280.8	83.0
280.6	73.0
280.4	76.0
280.2	67.0
280.0	74.0
279.8	71.0
279.6	61.0
279.4	73.0
279.2	66.0
279.0	67.0
278.8	70.0
278.6	63.0
278.4	62.0
278.2	58.0
278.0	78.0
277.8	52.0
277.6	57.0
277.4	63.0
277.2	60.0
277.0	61.0
276.8	65.0
276.6	72.0
276.4	64.0
276.2	52.0
276.0	59.0
275.8	71.0
275.6	56.0
275.4	69.0
275.2	63.0
275.0	59.0
274.8	58.0
274.6	57.0
274.4	63.0
274.2	52.0
274.0	63.0
273.8	63.0
273.6	63.0
273.4	66.0
273.2	62.0
273.0	59.0
272.8	54.0
272.6	62.0
272.4	69.0
272.2	55.0
272.0	68.0
271.8	70.0
271.6	61.0
271.4	68.0
271.2	69.0
271.0	69.0
270.8	82.0
270.6	76.0
270.4	66.0
270.2	67.0
270.0	73.0
269.8	71.0
269.6	84.0
269.4	74.0
269.2	67.0
269.0	66.0
268.8	67.0
268.6	59.0
268.4	61.0
268.2	76.0
268.0	62.0
267.8	62.0
267.6	64.0
267.4	56.0
267.2	75.0
267.0	59.0
266.8	62.0
266.6	54.0
266.4	58.0
266.2	65.0
266.0	54.0
265.8	62.0
265.6	50.0
265.4	63.0
265.2	62.0
265.0	60.0
264.8	62.0
264.6	65.0
264.4	68.0
264.2	51.0
264.0	62.0
263.8	60.0
263.6	57.0
263.4	64.0
263.2	50.0
263.0	65.0
262.8	57.0
262.6	57.0
262.4	62.0
262.2	66.0
262.0	59.0
261.8	60.0
261.6	66.0
261.4	49.0
261.2	52.0
261.0	59.0
260.8	63.0
260.6	61.0
260.4	65.0
260.2	68.0
260.0	57.0
259.8	59.0
259.6	57.0
259.4	55.0
259.2	61.0
259.0	56.0
258.8	44.0
258.6	53.0
258.4	59.0
258.2	61.0
258.0	62.0
257.8	60.0
257.6	64.0
257.4	54.0
257.2	62.0
257.0	50.0
256.8	68.0
256.6	52.0
256.4	57.0
256.2	64.0
256.0	64.0
255.8	53.0
255.6	62.0
255.4	50.0
255.2	64.0
255.0	58.0