File: XPS/Casa format/MX-UT 0p1 20Ap location M1 in image_MXUT0p120ApTi2s_Ti2s.txt
BE/eV	PE: 20.0 eV
579.0	10364.0
578.8	10447.0
578.6	10463.0
578.4	10605.0
578.2	10526.0
578.0	10519.0
577.8	10401.0
577.6	10367.0
577.4	10470.0
577.2	10371.0
577.0	10408.0
576.8	10295.0
576.6	10522.0
576.4	10475.0
576.2	10503.0
576.0	10297.0
575.8	10494.0
575.6	10421.0
575.4	10370.0
575.2	10482.0
575.0	10322.0
574.8	10449.0
574.6	10487.0
574.4	10328.0
574.2	10528.0
574.0	10518.0
573.8	10375.0
573.6	10317.0
573.4	10548.0
573.2	10393.0
573.0	10352.0
572.8	10356.0
572.6	10511.0
572.4	10393.0
572.2	10374.0
572.0	10386.0
571.8	10366.0
571.6	10380.0
571.4	10218.0
571.2	10277.0
571.0	10397.0
570.8	10449.0
570.6	10197.0
570.4	10364.0
570.2	10312.0
570.0	10299.0
569.8	10342.0
569.6	10335.0
569.4	10344.0
569.2	10364.0
569.0	10292.0
568.8	10322.0
568.6	10554.0
568.4	10423.0
568.2	10339.0
568.0	10391.0
567.8	10442.0
567.6	10403.0
567.4	10321.0
567.2	10590.0
567.0	10680.0
566.8	10389.0
566.6	10569.0
566.4	10594.0
566.2	10697.0
566.0	10510.0
565.8	10566.0
565.6	10589.0
565.4	10648.0
565.2	10675.0
565.0	10771.0
564.8	10599.0
564.6	10880.0
564.4	10979.0
564.2	10717.0
564.0	10946.0
563.8	10924.0
563.6	10939.0
563.4	11221.0
563.2	11034.0
563.0	11262.0
562.8	11021.0
562.6	11364.0
562.4	11285.0
562.2	11117.0
562.0	11242.0
561.8	11382.0
561.6	11144.0
561.4	11213.0
561.2	11126.0
561.0	10923.0
560.8	10946.0
560.6	11109.0
560.4	10970.0
560.2	10614.0
560.0	10714.0
559.8	10763.0
559.6	10527.0
559.4	10464.0
559.2	10613.0
559.0	10426.0
558.8	10426.0
558.6	10343.0
558.4	10324.0
558.2	10222.0
558.0	10225.0
557.8	10107.0
557.6	10047.0
557.4	10002.0
557.2	10120.0
557.0	10059.0
556.8	10133.0
556.6	9965.0
556.4	10054.0
556.2	9941.0
556.0	10000.0
555.8	10120.0
555.6	9995.0
555.4	9963.0
555.2	9987.0
555.0	9917.0
554.8	10031.0
554.6	10027.0
554.4	9993.0
554.2	9870.0
554.0	9929.0
553.8	9869.0
553.6	9882.0
553.4	9969.0
553.2	9954.0
553.0	9816.0
552.8	9822.0
552.6	9903.0
552.4	9953.0
552.2	9913.0
552.0	10001.0
551.8	9782.0
551.6	9740.0
551.4	9681.0
551.2	9748.0
551.0	9719.0
550.8	9936.0
550.6	9849.0
550.4	9917.0
550.2	9720.0
550.0	9747.0
549.8	9761.0
549.6	9760.0
549.4	9879.0
549.2	9937.0
549.0	9645.0