File: XPS/Casa format/MX-UT 0p5 20Ap location U1 in image-0.6287_MXUT0p520ApC1s_C1s.txt
BE/eV	PE: 20.0 eV
295.0	752.0
294.9	748.0
294.8	760.0
294.7	745.0
294.6	733.0
294.5	747.0
294.4	772.0
294.3	787.0
294.2	801.0
294.1	845.0
294.0	795.0
293.9	828.0
293.8	824.0
293.7	783.0
293.6	792.0
293.5	782.0
293.4	783.0
293.3	805.0
293.2	821.0
293.1	803.0
293.0	804.0
292.9	823.0
292.8	782.0
292.7	817.0
292.6	837.0
292.5	829.0
292.4	854.0
292.3	881.0
292.2	913.0
292.1	859.0
292.0	922.0
291.9	940.0
291.8	913.0
291.7	918.0
291.6	959.0
291.5	931.0
291.4	996.0
291.3	1036.0
291.2	1077.0
291.1	1082.0
291.0	1078.0
290.9	1146.0
290.8	1060.0
290.7	1111.0
290.6	1128.0
290.5	1132.0
290.4	1156.0
290.3	1121.0
290.2	1152.0
290.1	1172.0
290.0	1152.0
289.9	1103.0
289.8	1120.0
289.7	1103.0
289.6	1103.0
289.5	1070.0
289.4	1031.0
289.3	1040.0
289.2	1031.0
289.1	1053.0
289.0	1051.0
288.9	1086.0
288.8	1046.0
288.7	980.0
288.6	996.0
288.5	1017.0
288.4	1016.0
288.3	1018.0
288.2	985.0
288.1	1016.0
288.0	1014.0
287.9	1046.0
287.8	1045.0
287.7	1060.0
287.6	1087.0
287.5	1121.0
287.4	1056.0
287.3	1087.0
287.2	1106.0
287.1	1110.0
287.0	1179.0
286.9	1159.0
286.8	1207.0
286.7	1241.0
286.6	1279.0
286.5	1293.0
286.4	1404.0
286.3	1497.0
286.2	1501.0
286.1	1597.0
286.0	1628.0
285.9	1667.0
285.8	1760.0
285.7	1773.0
285.6	1963.0
285.5	1907.0
285.4	2098.0
285.3	2190.0
285.2	2341.0
285.1	2492.0
285.0	2685.0
284.9	2917.0
284.8	3365.0
284.7	3788.0
284.6	4275.0
284.5	5145.0
284.4	6515.0
284.3	8704.0
284.2	11668.0
284.1	15457.0
284.0	19016.0
283.9	21076.0
283.8	18906.0
283.7	14300.0
283.6	9016.0
283.5	5126.0
283.4	3091.0
283.3	2020.0
283.2	1402.0
283.1	1070.0
283.0	875.0
282.9	711.0
282.8	600.0
282.7	495.0
282.6	438.0
282.5	400.0
282.4	392.0
282.3	363.0
282.2	352.0
282.1	358.0
282.0	372.0
281.9	396.0
281.8	440.0
281.7	550.0
281.6	691.0
281.5	899.0
281.4	1001.0
281.3	1020.0
281.2	898.0
281.1	645.0
281.0	448.0
280.9	302.0
280.8	254.0
280.7	194.0
280.6	192.0
280.5	149.0
280.4	156.0
280.3	161.0
280.2	181.0
280.1	140.0
280.0	139.0
279.9	143.0
279.8	162.0
279.7	166.0
279.6	141.0
279.5	129.0
279.4	146.0
279.3	153.0
279.2	137.0
279.1	140.0
279.0	122.0
278.9	117.0
278.8	133.0
278.7	126.0
278.6	110.0
278.5	126.0
278.4	128.0
278.3	139.0
278.2	141.0
278.1	144.0
278.0	125.0
277.9	114.0
277.8	118.0
277.7	126.0
277.6	141.0
277.5	115.0
277.4	123.0
277.3	137.0
277.2	121.0
277.1	117.0
277.0	134.0