File: XPS/Casa format/MX-UT 0p5 20Ap location U1 in image-0.6530_MXUT0p520ApCl2s_Cl2s.txt
BE/eV	PE: 20.0 eV
285.0	1730.0
284.8	2033.0
284.6	2758.0
284.4	4161.0
284.2	7367.0
284.0	11833.0
283.8	10949.0
283.6	4878.0
283.4	1653.0
283.2	809.0
283.0	467.0
282.8	314.0
282.6	257.0
282.4	237.0
282.2	221.0
282.0	220.0
281.8	276.0
281.6	453.0
281.4	623.0
281.2	480.0
281.0	231.0
280.8	122.0
280.6	115.0
280.4	102.0
280.2	93.0
280.0	94.0
279.8	82.0
279.6	85.0
279.4	87.0
279.2	78.0
279.0	85.0
278.8	75.0
278.6	80.0
278.4	92.0
278.2	84.0
278.0	69.0
277.8	75.0
277.6	80.0
277.4	73.0
277.2	70.0
277.0	62.0
276.8	76.0
276.6	74.0
276.4	76.0
276.2	72.0
276.0	73.0
275.8	96.0
275.6	76.0
275.4	73.0
275.2	94.0
275.0	69.0
274.8	81.0
274.6	83.0
274.4	87.0
274.2	82.0
274.0	68.0
273.8	73.0
273.6	76.0
273.4	71.0
273.2	74.0
273.0	73.0
272.8	71.0
272.6	78.0
272.4	67.0
272.2	81.0
272.0	81.0
271.8	101.0
271.6	91.0
271.4	75.0
271.2	76.0
271.0	101.0
270.8	84.0
270.6	82.0
270.4	93.0
270.2	93.0
270.0	90.0
269.8	99.0
269.6	96.0
269.4	90.0
269.2	75.0
269.0	87.0
268.8	86.0
268.6	86.0
268.4	80.0
268.2	74.0
268.0	79.0
267.8	74.0
267.6	86.0
267.4	74.0
267.2	72.0
267.0	75.0
266.8	84.0
266.6	60.0
266.4	70.0
266.2	71.0
266.0	74.0
265.8	77.0
265.6	81.0
265.4	75.0
265.2	79.0
265.0	71.0
264.8	77.0
264.6	66.0
264.4	71.0
264.2	65.0
264.0	82.0
263.8	64.0
263.6	73.0
263.4	80.0
263.2	75.0
263.0	77.0
262.8	78.0
262.6	72.0
262.4	69.0
262.2	66.0
262.0	69.0
261.8	67.0
261.6	57.0
261.4	75.0
261.2	63.0
261.0	83.0
260.8	59.0
260.6	58.0
260.4	79.0
260.2	68.0
260.0	70.0
259.8	73.0
259.6	70.0
259.4	81.0
259.2	81.0
259.0	68.0
258.8	81.0
258.6	70.0
258.4	65.0
258.2	54.0
258.0	83.0
257.8	67.0
257.6	71.0
257.4	56.0
257.2	74.0
257.0	66.0
256.8	80.0
256.6	79.0
256.4	81.0
256.2	71.0
256.0	84.0
255.8	59.0
255.6	65.0
255.4	63.0
255.2	74.0
255.0	68.0