File: XPS/Casa format/MX-UT 0p1 20Ap location M1 in image_MXUT0p120ApCl2p_Cl2p.txt
BE/eV	PE: 20.0 eV
208.0	724.0
207.9	772.0
207.8	746.0
207.7	727.0
207.6	706.0
207.5	717.0
207.4	726.0
207.3	740.0
207.2	735.0
207.1	755.0
207.0	720.0
206.9	701.0
206.8	686.0
206.7	729.0
206.6	715.0
206.5	729.0
206.4	720.0
206.3	724.0
206.2	758.0
206.1	759.0
206.0	692.0
205.9	723.0
205.8	688.0
205.7	685.0
205.6	692.0
205.5	713.0
205.4	755.0
205.3	769.0
205.2	698.0
205.1	715.0
205.0	757.0
204.9	752.0
204.8	741.0
204.7	758.0
204.6	710.0
204.5	724.0
204.4	774.0
204.3	743.0
204.2	741.0
204.1	740.0
204.0	744.0
203.9	733.0
203.8	723.0
203.7	709.0
203.6	770.0
203.5	755.0
203.4	779.0
203.3	753.0
203.2	759.0
203.1	731.0
203.0	718.0
202.9	729.0
202.8	715.0
202.7	742.0
202.6	746.0
202.5	737.0
202.4	749.0
202.3	777.0
202.2	745.0
202.1	744.0
202.0	780.0
201.9	753.0
201.8	788.0
201.7	783.0
201.6	783.0
201.5	813.0
201.4	794.0
201.3	831.0
201.2	809.0
201.1	838.0
201.0	891.0
200.9	937.0
200.8	962.0
200.7	970.0
200.6	1051.0
200.5	1095.0
200.4	1083.0
200.3	1062.0
200.2	1004.0
200.1	958.0
200.0	877.0
199.9	896.0
199.8	864.0
199.7	861.0
199.6	909.0
199.5	898.0
199.4	951.0
199.3	1032.0
199.2	1089.0
199.1	1138.0
199.0	1219.0
198.9	1314.0
198.8	1268.0
198.7	1287.0
198.6	1204.0
198.5	1085.0
198.4	964.0
198.3	913.0
198.2	858.0
198.1	747.0
198.0	726.0
197.9	763.0
197.8	732.0
197.7	719.0
197.6	751.0
197.5	757.0
197.4	712.0
197.3	706.0
197.2	741.0
197.1	711.0
197.0	712.0
196.9	698.0
196.8	745.0
196.7	700.0
196.6	698.0
196.5	697.0
196.4	719.0
196.3	706.0
196.2	704.0
196.1	682.0
196.0	695.0
195.9	702.0
195.8	731.0
195.7	721.0
195.6	684.0
195.5	711.0
195.4	708.0
195.3	729.0
195.2	737.0
195.1	730.0
195.0	717.0