File: XPS/Casa format/MX-UT 0p5 20Ap location U1 in image-0.6287_MXUT0p520ApCl2p_Cl2p.txt
BE/eV	PE: 20.0 eV
208.0	876.0
207.9	882.0
207.8	832.0
207.7	861.0
207.6	855.0
207.5	862.0
207.4	842.0
207.3	885.0
207.2	898.0
207.1	860.0
207.0	851.0
206.9	837.0
206.8	863.0
206.7	885.0
206.6	812.0
206.5	853.0
206.4	840.0
206.3	817.0
206.2	869.0
206.1	885.0
206.0	883.0
205.9	856.0
205.8	903.0
205.7	865.0
205.6	834.0
205.5	868.0
205.4	862.0
205.3	898.0
205.2	870.0
205.1	888.0
205.0	909.0
204.9	881.0
204.8	860.0
204.7	897.0
204.6	884.0
204.5	863.0
204.4	876.0
204.3	880.0
204.2	886.0
204.1	868.0
204.0	896.0
203.9	852.0
203.8	881.0
203.7	880.0
203.6	862.0
203.5	878.0
203.4	882.0
203.3	856.0
203.2	899.0
203.1	921.0
203.0	888.0
202.9	877.0
202.8	890.0
202.7	914.0
202.6	875.0
202.5	849.0
202.4	882.0
202.3	932.0
202.2	872.0
202.1	935.0
202.0	901.0
201.9	919.0
201.8	956.0
201.7	929.0
201.6	972.0
201.5	916.0
201.4	869.0
201.3	920.0
201.2	949.0
201.1	975.0
201.0	991.0
200.9	1004.0
200.8	1088.0
200.7	1117.0
200.6	1196.0
200.5	1267.0
200.4	1336.0
200.3	1339.0
200.2	1335.0
200.1	1290.0
200.0	1210.0
199.9	1153.0
199.8	1108.0
199.7	1041.0
199.6	1056.0
199.5	1039.0
199.4	1079.0
199.3	1076.0
199.2	1234.0
199.1	1296.0
199.0	1401.0
198.9	1482.0
198.8	1581.0
198.7	1634.0
198.6	1661.0
198.5	1518.0
198.4	1474.0
198.3	1335.0
198.2	1187.0
198.1	1071.0
198.0	1003.0
197.9	970.0
197.8	906.0
197.7	911.0
197.6	902.0
197.5	840.0
197.4	862.0
197.3	821.0
197.2	805.0
197.1	858.0
197.0	872.0
196.9	839.0
196.8	864.0
196.7	875.0
196.6	866.0
196.5	901.0
196.4	868.0
196.3	846.0
196.2	861.0
196.1	868.0
196.0	875.0
195.9	809.0
195.8	795.0
195.7	794.0
195.6	797.0
195.5	865.0
195.4	915.0
195.3	877.0
195.2	818.0
195.1	844.0
195.0	874.0