File: XPS/Casa format/MX-UT 0p1 20Ap location M1 in image_MXUT0p120ApTi2p_Ti2p.txt
BE/eV	PE: 20.0 eV
470.0	14476.0
469.9	14476.0
469.8	14584.0
469.7	14494.0
469.6	14297.0
469.5	14291.0
469.4	14243.0
469.3	14296.0
469.2	14536.0
469.1	14446.0
469.0	14395.0
468.9	14440.0
468.8	14333.0
468.7	14388.0
468.6	14291.0
468.5	14336.0
468.4	14317.0
468.3	14229.0
468.2	14410.0
468.1	14260.0
468.0	14195.0
467.9	14060.0
467.8	14032.0
467.7	14351.0
467.6	14323.0
467.5	14242.0
467.4	14317.0
467.3	14347.0
467.2	14236.0
467.1	14411.0
467.0	14406.0
466.9	14296.0
466.8	14252.0
466.7	14114.0
466.6	14075.0
466.5	14229.0
466.4	14230.0
466.3	14187.0
466.2	14017.0
466.1	14149.0
466.0	14232.0
465.9	14111.0
465.8	14240.0
465.7	14146.0
465.6	13956.0
465.5	14196.0
465.4	14139.0
465.3	14162.0
465.2	14305.0
465.1	14234.0
465.0	14107.0
464.9	14191.0
464.8	14140.0
464.7	14437.0
464.6	14440.0
464.5	14421.0
464.4	14451.0
464.3	14676.0
464.2	14554.0
464.1	14504.0
464.0	14528.0
463.9	14687.0
463.8	14834.0
463.7	14872.0
463.6	15006.0
463.5	14957.0
463.4	15102.0
463.3	15354.0
463.2	15466.0
463.1	15513.0
463.0	15449.0
462.9	15616.0
462.8	15769.0
462.7	15814.0
462.6	16150.0
462.5	16164.0
462.4	16201.0
462.3	16257.0
462.2	16472.0
462.1	16602.0
462.0	16795.0
461.9	16811.0
461.8	17016.0
461.7	17059.0
461.6	17394.0
461.5	17401.0
461.4	17433.0
461.3	17469.0
461.2	17647.0
461.1	17752.0
461.0	17795.0
460.9	17632.0
460.8	17698.0
460.7	17491.0
460.6	17199.0
460.5	16844.0
460.4	16619.0
460.3	16507.0
460.2	16149.0
460.1	15775.0
460.0	15426.0
459.9	15178.0
459.8	14844.0
459.7	14816.0
459.6	14778.0
459.5	14727.0
459.4	14746.0
459.3	14641.0
459.2	14608.0
459.1	14494.0
459.0	14570.0
458.9	14611.0
458.8	14673.0
458.7	14833.0
458.6	14876.0
458.5	14839.0
458.4	14924.0
458.3	15077.0
458.2	14878.0
458.1	14874.0
458.0	14963.0
457.9	15183.0
457.8	15255.0
457.7	15450.0
457.6	15516.0
457.5	15752.0
457.4	15809.0
457.3	16112.0
457.2	16236.0
457.1	16689.0
457.0	16901.0
456.9	17069.0
456.8	17319.0
456.7	17425.0
456.6	17963.0
456.5	18142.0
456.4	18670.0
456.3	19197.0
456.2	19230.0
456.1	19488.0
456.0	19950.0
455.9	20272.0
455.8	20408.0
455.7	20702.0
455.6	21115.0
455.5	21489.0
455.4	21564.0
455.3	21873.0
455.2	22120.0
455.1	22159.0
455.0	21996.0
454.9	21779.0
454.8	21541.0
454.7	21680.0
454.6	21287.0
454.5	20832.0
454.4	19868.0
454.3	18245.0
454.2	16150.0
454.1	14305.0
454.0	13159.0
453.9	12387.0
453.8	11879.0
453.7	11715.0
453.6	11522.0
453.5	11625.0
453.4	11510.0
453.3	11426.0
453.2	11364.0
453.1	11337.0
453.0	11325.0
452.9	11296.0
452.8	11248.0
452.7	11206.0
452.6	11113.0
452.5	11035.0
452.4	11128.0
452.3	11051.0
452.2	11078.0
452.1	11067.0
452.0	11063.0
451.9	11147.0
451.8	11122.0
451.7	10977.0
451.6	11161.0
451.5	11178.0
451.4	10929.0
451.3	11108.0
451.2	11149.0
451.1	10957.0
451.0	10914.0
450.9	10987.0
450.8	11033.0
450.7	11007.0
450.6	11100.0
450.5	11078.0
450.4	11067.0
450.3	11176.0
450.2	11095.0
450.1	11141.0
450.0	11032.0