File: XPS/Casa format/MX-UT 0p1 20Ap location M1 in image_MXUT0p120ApC1s_C1s.txt
BE/eV	PE: 20.0 eV
295.0	777.0
294.9	766.0
294.8	732.0
294.7	739.0
294.6	810.0
294.5	765.0
294.4	731.0
294.3	818.0
294.2	826.0
294.1	781.0
294.0	771.0
293.9	760.0
293.8	748.0
293.7	774.0
293.6	747.0
293.5	776.0
293.4	789.0
293.3	823.0
293.2	834.0
293.1	804.0
293.0	809.0
292.9	840.0
292.8	782.0
292.7	826.0
292.6	867.0
292.5	888.0
292.4	898.0
292.3	867.0
292.2	884.0
292.1	922.0
292.0	919.0
291.9	963.0
291.8	991.0
291.7	966.0
291.6	1002.0
291.5	1024.0
291.4	1010.0
291.3	1013.0
291.2	1038.0
291.1	1059.0
291.0	1073.0
290.9	1094.0
290.8	1070.0
290.7	1129.0
290.6	1078.0
290.5	1054.0
290.4	1051.0
290.3	1025.0
290.2	1037.0
290.1	1065.0
290.0	1056.0
289.9	995.0
289.8	1025.0
289.7	1038.0
289.6	1037.0
289.5	977.0
289.4	1001.0
289.3	990.0
289.2	972.0
289.1	1001.0
289.0	992.0
288.9	985.0
288.8	945.0
288.7	970.0
288.6	975.0
288.5	962.0
288.4	989.0
288.3	967.0
288.2	1044.0
288.1	1052.0
288.0	1008.0
287.9	1055.0
287.8	1083.0
287.7	1052.0
287.6	1079.0
287.5	1116.0
287.4	1153.0
287.3	1168.0
287.2	1178.0
287.1	1252.0
287.0	1254.0
286.9	1250.0
286.8	1329.0
286.7	1344.0
286.6	1449.0
286.5	1563.0
286.4	1590.0
286.3	1620.0
286.2	1649.0
286.1	1731.0
286.0	1812.0
285.9	1906.0
285.8	1962.0
285.7	1944.0
285.6	2124.0
285.5	2178.0
285.4	2305.0
285.3	2522.0
285.2	2797.0
285.1	3084.0
285.0	3345.0
284.9	3971.0
284.8	4586.0
284.7	5786.0
284.6	7339.0
284.5	9569.0
284.4	12716.0
284.3	16689.0
284.2	20094.0
284.1	20745.0
284.0	18010.0
283.9	12891.0
283.8	8055.0
283.7	4594.0
283.6	2738.0
283.5	1805.0
283.4	1346.0
283.3	995.0
283.2	786.0
283.1	614.0
283.0	525.0
282.9	449.0
282.8	419.0
282.7	408.0
282.6	356.0
282.5	327.0
282.4	301.0
282.3	329.0
282.2	334.0
282.1	351.0
282.0	381.0
281.9	434.0
281.8	588.0
281.7	710.0
281.6	748.0
281.5	707.0
281.4	608.0
281.3	393.0
281.2	295.0
281.1	224.0
281.0	194.0
280.9	184.0
280.8	173.0
280.7	149.0
280.6	132.0
280.5	133.0
280.4	140.0
280.3	125.0
280.2	133.0
280.1	118.0
280.0	117.0
279.9	121.0
279.8	135.0
279.7	131.0
279.6	120.0
279.5	126.0
279.4	131.0
279.3	115.0
279.2	114.0
279.1	126.0
279.0	135.0
278.9	120.0
278.8	101.0
278.7	93.0
278.6	99.0
278.5	111.0
278.4	104.0
278.3	113.0
278.2	112.0
278.1	119.0
278.0	126.0
277.9	103.0
277.8	102.0
277.7	109.0
277.6	102.0
277.5	97.0
277.4	101.0
277.3	98.0
277.2	94.0
277.1	98.0
277.0	110.0