File: XPS/Casa format/MX-UT 0p1 20Ap location M1 in image_MXUT0p120ApTi3p_Ti3p.txt
BE/eV	PE: 20.0 eV
49.0	378.0
48.8	350.0
48.6	347.0
48.4	338.0
48.2	381.0
48.0	360.0
47.8	369.0
47.6	368.0
47.4	349.0
47.2	379.0
47.0	342.0
46.8	332.0
46.6	352.0
46.4	355.0
46.2	363.0
46.0	339.0
45.8	352.0
45.6	325.0
45.4	314.0
45.2	330.0
45.0	322.0
44.8	298.0
44.6	325.0
44.4	324.0
44.2	324.0
44.0	311.0
43.8	289.0
43.6	312.0
43.4	294.0
43.2	334.0
43.0	310.0
42.8	308.0
42.6	326.0
42.4	319.0
42.2	300.0
42.0	304.0
41.8	321.0
41.6	322.0
41.4	321.0
41.2	312.0
41.0	316.0
40.8	332.0
40.6	333.0
40.4	345.0
40.2	339.0
40.0	313.0
39.8	346.0
39.6	387.0
39.4	345.0
39.2	364.0
39.0	344.0
38.8	342.0
38.6	385.0
38.4	405.0
38.2	391.0
38.0	409.0
37.8	417.0
37.6	427.0
37.4	443.0
37.2	483.0
37.0	449.0
36.8	476.0
36.6	490.0
36.4	561.0
36.2	563.0
36.0	618.0
35.8	597.0
35.6	733.0
35.4	711.0
35.2	706.0
35.0	736.0
34.8	792.0
34.6	756.0
34.4	802.0
34.2	775.0
34.0	739.0
33.8	714.0
33.6	652.0
33.4	560.0
33.2	459.0
33.0	372.0
32.8	299.0
32.6	278.0
32.4	254.0
32.2	217.0
32.0	205.0
31.8	203.0
31.6	206.0
31.4	204.0
31.2	199.0
31.0	207.0
30.8	216.0
30.6	180.0
30.4	209.0
30.2	204.0
30.0	186.0
29.8	227.0
29.6	202.0
29.4	230.0
29.2	214.0
29.0	234.0
28.8	227.0
28.6	205.0
28.4	174.0
28.2	183.0
28.0	172.0
27.8	165.0
27.6	172.0
27.4	162.0
27.2	164.0
27.0	165.0
26.8	181.0
26.6	151.0
26.4	167.0
26.2	149.0
26.0	158.0
25.8	179.0
25.6	158.0
25.4	194.0
25.2	147.0
25.0	158.0
24.8	186.0
24.6	156.0
24.4	180.0
24.2	157.0
24.0	169.0
23.8	152.0
23.6	182.0
23.4	165.0
23.2	171.0
23.0	177.0
22.8	197.0
22.6	190.0
22.4	199.0
22.2	226.0
22.0	239.0
21.8	220.0
21.6	245.0
21.4	258.0
21.2	282.0
21.0	266.0
20.8	264.0
20.6	258.0
20.4	267.0
20.2	254.0
20.0	273.0
19.8	259.0
19.6	271.0
19.4	266.0
19.2	264.0
19.0	277.0