File: XPS/Casa format/MX-UT 0p5 20Ap location U1 in image-0.6530_MXUT0p520ApTi2p_Ti2p.txt
BE/eV	PE: 20.0 eV
470.0	15744.0
469.9	16026.0
469.8	15860.0
469.7	15909.0
469.6	15831.0
469.5	15872.0
469.4	15860.0
469.3	15731.0
469.2	15882.0
469.1	15871.0
469.0	15956.0
468.9	15789.0
468.8	15820.0
468.7	15964.0
468.6	15834.0
468.5	15757.0
468.4	15865.0
468.3	15972.0
468.2	15817.0
468.1	15526.0
468.0	15675.0
467.9	15703.0
467.8	15684.0
467.7	15580.0
467.6	15702.0
467.5	15775.0
467.4	15599.0
467.3	15498.0
467.2	15558.0
467.1	15670.0
467.0	15555.0
466.9	15565.0
466.8	15433.0
466.7	15466.0
466.6	15532.0
466.5	15514.0
466.4	15437.0
466.3	15371.0
466.2	15530.0
466.1	15476.0
466.0	15522.0
465.9	15389.0
465.8	15490.0
465.7	15575.0
465.6	15466.0
465.5	15541.0
465.4	15319.0
465.3	15556.0
465.2	15413.0
465.1	15460.0
465.0	15581.0
464.9	15413.0
464.8	15460.0
464.7	15645.0
464.6	15718.0
464.5	15836.0
464.4	15505.0
464.3	15527.0
464.2	15941.0
464.1	15977.0
464.0	15995.0
463.9	16029.0
463.8	16033.0
463.7	16293.0
463.6	16329.0
463.5	16472.0
463.4	16614.0
463.3	16601.0
463.2	16704.0
463.1	16714.0
463.0	17055.0
462.9	17363.0
462.8	17496.0
462.7	17588.0
462.6	18012.0
462.5	18049.0
462.4	18411.0
462.3	18657.0
462.2	18532.0
462.1	18916.0
462.0	19038.0
461.9	19234.0
461.8	19406.0
461.7	19295.0
461.6	19673.0
461.5	19888.0
461.4	20075.0
461.3	20153.0
461.2	20247.0
461.1	20497.0
461.0	20689.0
460.9	20789.0
460.8	20709.0
460.7	20471.0
460.6	20324.0
460.5	20062.0
460.4	20044.0
460.3	19451.0
460.2	18988.0
460.1	18407.0
460.0	18005.0
459.9	17731.0
459.8	17235.0
459.7	16738.0
459.6	16532.0
459.5	16505.0
459.4	16408.0
459.3	16305.0
459.2	16165.0
459.1	16169.0
459.0	16205.0
458.9	16041.0
458.8	16050.0
458.7	16257.0
458.6	16004.0
458.5	16193.0
458.4	16354.0
458.3	16139.0
458.2	16283.0
458.1	16365.0
458.0	16574.0
457.9	16465.0
457.8	16574.0
457.7	16615.0
457.6	17010.0
457.5	17063.0
457.4	17191.0
457.3	17873.0
457.2	18029.0
457.1	18433.0
457.0	18966.0
456.9	19283.0
456.8	19552.0
456.7	20163.0
456.6	20730.0
456.5	20878.0
456.4	21550.0
456.3	21968.0
456.2	22470.0
456.1	22802.0
456.0	23160.0
455.9	23901.0
455.8	24322.0
455.7	24770.0
455.6	25372.0
455.5	25397.0
455.4	25870.0
455.3	26196.0
455.2	26298.0
455.1	26706.0
455.0	26821.0
454.9	26918.0
454.8	26785.0
454.7	26416.0
454.6	26044.0
454.5	25831.0
454.4	24860.0
454.3	23890.0
454.2	21809.0
454.1	19243.0
454.0	16348.0
453.9	14368.0
453.8	13215.0
453.7	12433.0
453.6	11984.0
453.5	11717.0
453.4	11550.0
453.3	11641.0
453.2	11444.0
453.1	11454.0
453.0	11337.0
452.9	11405.0
452.8	11154.0
452.7	11101.0
452.6	11133.0
452.5	11071.0
452.4	11072.0
452.3	10885.0
452.2	11000.0
452.1	10949.0
452.0	10917.0
451.9	11053.0
451.8	11118.0
451.7	11021.0
451.6	11002.0
451.5	10903.0
451.4	10847.0
451.3	10836.0
451.2	10924.0
451.1	10955.0
451.0	10889.0
450.9	10910.0
450.8	10842.0
450.7	10895.0
450.6	10979.0
450.5	10977.0
450.4	10825.0
450.3	10851.0
450.2	10769.0
450.1	10863.0
450.0	10773.0