File: XPS/Casa format/UT 18 Ap location T1 in image_UT18Apwide_wide.txt
BE/eV	PE: 160.0 eV
1200.0	21098.0
1195.0	20891.0
1190.0	21226.0
1185.0	21026.0
1180.0	21153.0
1175.0	21537.0
1170.0	22012.0
1165.0	21713.0
1160.0	21900.0
1155.0	21889.0
1150.0	22078.0
1145.0	22367.0
1140.0	22345.0
1135.0	22267.0
1130.0	22506.0
1125.0	22729.0
1120.0	22839.0
1115.0	22937.0
1110.0	23275.0
1105.0	23606.0
1100.0	23589.0
1095.0	23496.0
1090.0	23867.0
1085.0	23968.0
1080.0	24006.0
1075.0	24249.0
1070.0	24844.0
1065.0	24542.0
1060.0	24990.0
1055.0	24810.0
1050.0	25175.0
1045.0	25309.0
1040.0	25747.0
1035.0	25650.0
1030.0	26231.0
1025.0	26549.0
1020.0	27161.0
1015.0	27247.0
1010.0	27313.0
1005.0	28149.0
1000.0	28928.0
995.0	28687.0
990.0	28414.0
985.0	28497.0
980.0	29973.0
975.0	31400.0
970.0	29615.0
965.0	27071.0
960.0	26721.0
955.0	26614.0
950.0	26542.0
945.0	26831.0
940.0	26910.0
935.0	27011.0
930.0	27058.0
925.0	27302.0
920.0	27705.0
915.0	27570.0
910.0	27549.0
905.0	27711.0
900.0	27870.0
895.0	27723.0
890.0	28002.0
885.0	28739.0
880.0	28198.0
875.0	28573.0
870.0	28706.0
865.0	28892.0
860.0	28951.0
855.0	29135.0
850.0	29312.0
845.0	29256.0
840.0	29206.0
835.0	29170.0
830.0	29583.0
825.0	29556.0
820.0	29680.0
815.0	29758.0
810.0	30215.0
805.0	30280.0
800.0	29964.0
795.0	30143.0
790.0	30377.0
785.0	30186.0
780.0	30359.0
775.0	30540.0
770.0	30562.0
765.0	30736.0
760.0	30933.0
755.0	31122.0
750.0	30856.0
745.0	31533.0
740.0	31614.0
735.0	31428.0
730.0	31466.0
725.0	31533.0
720.0	31653.0
715.0	31844.0
710.0	31901.0
705.0	31957.0
700.0	32159.0
695.0	31897.0
690.0	32298.0
685.0	32345.0
680.0	32313.0
675.0	32585.0
670.0	32461.0
665.0	32596.0
660.0	32822.0
655.0	32881.0
650.0	32758.0
645.0	33187.0
640.0	33278.0
635.0	33247.0
630.0	33354.0
625.0	33555.0
620.0	33570.0
615.0	33834.0
610.0	33803.0
605.0	33651.0
600.0	34229.0
595.0	34352.0
590.0	34593.0
585.0	34450.0
580.0	34644.0
575.0	34803.0
570.0	35038.0
565.0	35269.0
560.0	35753.0
555.0	35868.0
550.0	35913.0
545.0	35595.0
540.0	35589.0
535.0	37292.0
530.0	40714.0
525.0	35131.0
520.0	34570.0
515.0	34951.0
510.0	34821.0
505.0	35106.0
500.0	35299.0
495.0	35381.0
490.0	35584.0
485.0	35506.0
480.0	35626.0
475.0	35515.0
470.0	36040.0
465.0	36067.0
460.0	35999.0
455.0	36150.0
450.0	36453.0
445.0	36564.0
440.0	36726.0
435.0	36942.0
430.0	36896.0
425.0	37239.0
420.0	37313.0
415.0	37173.0
410.0	37464.0
405.0	37642.0
400.0	38315.0
395.0	38072.0
390.0	38230.0
385.0	38269.0
380.0	38610.0
375.0	38972.0
370.0	38954.0
365.0	38791.0
360.0	39073.0
355.0	39359.0
350.0	39993.0
345.0	40755.0
340.0	40255.0
335.0	38732.0
330.0	37489.0
325.0	39081.0
320.0	42430.0
315.0	44596.0
310.0	42852.0
305.0	32971.0
300.0	23638.0
295.0	22300.0
290.0	36240.0
285.0	123889.0
280.0	4633.0
275.0	1499.0
270.0	1376.0
265.0	1334.0
260.0	1282.0
255.0	1241.0
250.0	1293.0
245.0	1247.0
240.0	1311.0
235.0	1291.0
230.0	1279.0
225.0	1335.0
220.0	1293.0
215.0	1309.0
210.0	1300.0
205.0	1271.0
200.0	1349.0
195.0	1297.0
190.0	1328.0
185.0	1290.0
180.0	1295.0
175.0	1281.0
170.0	1326.0
165.0	1299.0
160.0	1319.0
155.0	1360.0
150.0	1374.0
145.0	1273.0
140.0	1344.0
135.0	1329.0
130.0	1326.0
125.0	1353.0
120.0	1379.0
115.0	1320.0
110.0	1331.0
105.0	1369.0
100.0	1432.0
95.0	1347.0
90.0	1375.0
85.0	1384.0
80.0	1380.0
75.0	1465.0
70.0	1416.0
65.0	1417.0
60.0	1383.0
55.0	1489.0
50.0	1595.0
45.0	1614.0
40.0	1561.0
35.0	1246.0
30.0	1180.0
25.0	1563.0
20.0	2389.0
15.0	2297.0
10.0	1312.0
5.0	512.0
0.0	40.0
-5.0	3.0