File: XPS/Casa format/UT 18 Ap location T1 in image-0.6322_UT18ApTi2s_Ti2s.txt
BE/eV	PE: 20.0 eV
579.0	7970.0
578.8	7924.0
578.6	8111.0
578.4	8085.0
578.2	7933.0
578.0	8039.0
577.8	8115.0
577.6	8054.0
577.4	8008.0
577.2	8071.0
577.0	8100.0
576.8	8161.0
576.6	8119.0
576.4	8167.0
576.2	8109.0
576.0	8039.0
575.8	8177.0
575.6	8082.0
575.4	7997.0
575.2	8195.0
575.0	7935.0
574.8	8046.0
574.6	8001.0
574.4	7954.0
574.2	7924.0
574.0	8137.0
573.8	8085.0
573.6	8099.0
573.4	7978.0
573.2	8045.0
573.0	7917.0
572.8	8044.0
572.6	8024.0
572.4	8088.0
572.2	8129.0
572.0	8153.0
571.8	8084.0
571.6	7947.0
571.4	8095.0
571.2	7983.0
571.0	8174.0
570.8	8014.0
570.6	8032.0
570.4	8056.0
570.2	8127.0
570.0	8035.0
569.8	8074.0
569.6	8066.0
569.4	8071.0
569.2	8020.0
569.0	8199.0
568.8	8195.0
568.6	8127.0
568.4	7964.0
568.2	8080.0
568.0	8200.0
567.8	7961.0
567.6	8109.0
567.4	7991.0
567.2	8075.0
567.0	8071.0
566.8	8133.0
566.6	7884.0
566.4	8057.0
566.2	8119.0
566.0	8102.0
565.8	8052.0
565.6	8015.0
565.4	8008.0
565.2	7991.0
565.0	8000.0
564.8	8089.0
564.6	8043.0
564.4	8098.0
564.2	8191.0
564.0	8093.0
563.8	8059.0
563.6	8145.0
563.4	8078.0
563.2	8219.0
563.0	8099.0
562.8	8141.0
562.6	8279.0
562.4	8126.0
562.2	8141.0
562.0	8050.0
561.8	8079.0
561.6	7982.0
561.4	8054.0
561.2	8209.0
561.0	8140.0
560.8	8111.0
560.6	8300.0
560.4	7895.0
560.2	8229.0
560.0	7989.0
559.8	8166.0
559.6	8180.0
559.4	8169.0
559.2	8116.0
559.0	8213.0
558.8	8100.0
558.6	8146.0
558.4	8160.0
558.2	8220.0
558.0	8203.0
557.8	8232.0
557.6	8112.0
557.4	8274.0
557.2	8123.0
557.0	8117.0
556.8	8227.0
556.6	8281.0
556.4	8159.0
556.2	8216.0
556.0	8185.0
555.8	8160.0
555.6	8137.0
555.4	8070.0
555.2	8241.0
555.0	8125.0
554.8	8089.0
554.6	8245.0
554.4	8085.0
554.2	8193.0
554.0	8151.0
553.8	8102.0
553.6	8150.0
553.4	8214.0
553.2	8177.0
553.0	8155.0
552.8	8026.0
552.6	8181.0
552.4	8196.0
552.2	8193.0
552.0	8203.0
551.8	8092.0
551.6	8132.0
551.4	8200.0
551.2	8133.0
551.0	8160.0
550.8	8151.0
550.6	8128.0
550.4	8073.0
550.2	8092.0
550.0	8246.0
549.8	8074.0
549.6	8087.0
549.4	8055.0
549.2	8056.0
549.0	7941.0