File: XPS/Casa format/UT 18 Ap location T1 in image_UT18ApCl2s_Cl2s.txt
BE/eV	PE: 20.0 eV
285.0	1934.0
284.8	2345.0
284.6	3097.0
284.4	4856.0
284.2	8921.0
284.0	14281.0
283.8	12881.0
283.6	5575.0
283.4	1765.0
283.2	820.0
283.0	437.0
282.8	262.0
282.6	178.0
282.4	162.0
282.2	126.0
282.0	106.0
281.8	85.0
281.6	84.0
281.4	74.0
281.2	65.0
281.0	69.0
280.8	60.0
280.6	40.0
280.4	56.0
280.2	43.0
280.0	45.0
279.8	40.0
279.6	37.0
279.4	30.0
279.2	34.0
279.0	35.0
278.8	29.0
278.6	32.0
278.4	27.0
278.2	27.0
278.0	28.0
277.8	41.0
277.6	24.0
277.4	37.0
277.2	27.0
277.0	26.0
276.8	32.0
276.6	23.0
276.4	35.0
276.2	38.0
276.0	26.0
275.8	19.0
275.6	34.0
275.4	28.0
275.2	30.0
275.0	32.0
274.8	32.0
274.6	32.0
274.4	33.0
274.2	28.0
274.0	31.0
273.8	25.0
273.6	24.0
273.4	28.0
273.2	23.0
273.0	28.0
272.8	36.0
272.6	32.0
272.4	31.0
272.2	28.0
272.0	32.0
271.8	33.0
271.6	30.0
271.4	34.0
271.2	33.0
271.0	20.0
270.8	35.0
270.6	30.0
270.4	27.0
270.2	32.0
270.0	28.0
269.8	27.0
269.6	23.0
269.4	33.0
269.2	25.0
269.0	26.0
268.8	33.0
268.6	34.0
268.4	29.0
268.2	33.0
268.0	33.0
267.8	24.0
267.6	28.0
267.4	25.0
267.2	29.0
267.0	24.0
266.8	35.0
266.6	27.0
266.4	32.0
266.2	25.0
266.0	27.0
265.8	26.0
265.6	31.0
265.4	22.0
265.2	32.0
265.0	32.0
264.8	30.0
264.6	30.0
264.4	22.0
264.2	26.0
264.0	24.0
263.8	37.0
263.6	30.0
263.4	24.0
263.2	38.0
263.0	24.0
262.8	24.0
262.6	24.0
262.4	33.0
262.2	27.0
262.0	31.0
261.8	23.0
261.6	40.0
261.4	25.0
261.2	26.0
261.0	28.0
260.8	23.0
260.6	31.0
260.4	35.0
260.2	23.0
260.0	22.0
259.8	32.0
259.6	40.0
259.4	31.0
259.2	30.0
259.0	25.0
258.8	23.0
258.6	26.0
258.4	28.0
258.2	41.0
258.0	31.0
257.8	35.0
257.6	32.0
257.4	37.0
257.2	20.0
257.0	26.0
256.8	25.0
256.6	28.0
256.4	30.0
256.2	22.0
256.0	26.0
255.8	32.0
255.6	28.0
255.4	26.0
255.2	33.0
255.0	24.0