File: XPS/Casa format/UT 18 Ap location T1 in image-0.6322_UT18ApTi3s_Ti3s.txt
BE/eV	PE: 20.0 eV
74.0	146.0
73.8	151.0
73.6	168.0
73.4	134.0
73.2	149.0
73.0	154.0
72.8	133.0
72.6	146.0
72.4	132.0
72.2	138.0
72.0	133.0
71.8	144.0
71.6	156.0
71.4	139.0
71.2	154.0
71.0	145.0
70.8	142.0
70.6	127.0
70.4	158.0
70.2	146.0
70.0	144.0
69.8	160.0
69.6	149.0
69.4	170.0
69.2	150.0
69.0	148.0
68.8	125.0
68.6	148.0
68.4	140.0
68.2	136.0
68.0	170.0
67.8	151.0
67.6	134.0
67.4	154.0
67.2	143.0
67.0	152.0
66.8	134.0
66.6	141.0
66.4	122.0
66.2	141.0
66.0	151.0
65.8	156.0
65.6	146.0
65.4	130.0
65.2	144.0
65.0	176.0
64.8	133.0
64.6	151.0
64.4	143.0
64.2	139.0
64.0	159.0
63.8	144.0
63.6	135.0
63.4	134.0
63.2	148.0
63.0	132.0
62.8	137.0
62.6	154.0
62.4	155.0
62.2	150.0
62.0	152.0
61.8	154.0
61.6	140.0
61.4	130.0
61.2	150.0
61.0	165.0
60.8	154.0
60.6	146.0
60.4	134.0
60.2	134.0
60.0	149.0
59.8	143.0
59.6	135.0
59.4	147.0
59.2	141.0
59.0	149.0
58.8	159.0
58.6	151.0
58.4	136.0
58.2	168.0
58.0	142.0
57.8	161.0
57.6	151.0
57.4	150.0
57.2	144.0
57.0	138.0
56.8	156.0
56.6	138.0
56.4	153.0
56.2	145.0
56.0	155.0
55.8	152.0
55.6	147.0
55.4	144.0
55.2	148.0
55.0	144.0
54.8	155.0
54.6	152.0
54.4	148.0
54.2	164.0
54.0	136.0
53.8	151.0
53.6	150.0
53.4	163.0
53.2	143.0
53.0	148.0
52.8	161.0
52.6	145.0
52.4	163.0
52.2	144.0
52.0	168.0
51.8	160.0
51.6	150.0
51.4	145.0
51.2	174.0
51.0	151.0
50.8	158.0
50.6	166.0
50.4	152.0
50.2	158.0
50.0	167.0
49.8	153.0
49.6	167.0
49.4	170.0
49.2	165.0
49.0	164.0
48.8	164.0
48.6	160.0
48.4	173.0
48.2	166.0
48.0	166.0
47.8	166.0
47.6	182.0
47.4	182.0
47.2	145.0
47.0	164.0
46.8	182.0
46.6	158.0
46.4	160.0
46.2	166.0
46.0	177.0
45.8	167.0
45.6	172.0
45.4	161.0
45.2	175.0
45.0	174.0
44.8	172.0
44.6	180.0
44.4	171.0
44.2	164.0
44.0	160.0