File: XPS/Casa format/UT 18 Ap location T1 in image_UT18ApTi2p_Ti2p.txt
BE/eV	PE: 20.0 eV
470.0	11791.0
469.9	12018.0
469.8	11910.0
469.7	11850.0
469.6	11886.0
469.5	11876.0
469.4	12053.0
469.3	12022.0
469.2	12017.0
469.1	11973.0
469.0	12027.0
468.9	12011.0
468.8	12038.0
468.7	12038.0
468.6	12074.0
468.5	11960.0
468.4	12110.0
468.3	12093.0
468.2	12002.0
468.1	12165.0
468.0	12114.0
467.9	11860.0
467.8	11982.0
467.7	12026.0
467.6	11952.0
467.5	11881.0
467.4	11969.0
467.3	11968.0
467.2	12039.0
467.1	12135.0
467.0	11912.0
466.9	12027.0
466.8	12091.0
466.7	12182.0
466.6	12027.0
466.5	11920.0
466.4	12072.0
466.3	11902.0
466.2	12160.0
466.1	12157.0
466.0	11995.0
465.9	12015.0
465.8	12048.0
465.7	12074.0
465.6	12207.0
465.5	11914.0
465.4	12040.0
465.3	12039.0
465.2	11994.0
465.1	12095.0
465.0	12145.0
464.9	12221.0
464.8	12106.0
464.7	11908.0
464.6	11989.0
464.5	12084.0
464.4	12049.0
464.3	11904.0
464.2	12126.0
464.1	11979.0
464.0	12092.0
463.9	12019.0
463.8	12174.0
463.7	12080.0
463.6	11942.0
463.5	12075.0
463.4	11964.0
463.3	12008.0
463.2	12174.0
463.1	12012.0
463.0	12107.0
462.9	12015.0
462.8	11982.0
462.7	11939.0
462.6	11887.0
462.5	11956.0
462.4	12035.0
462.3	12168.0
462.2	11994.0
462.1	12051.0
462.0	12030.0
461.9	12047.0
461.8	12036.0
461.7	11974.0
461.6	11943.0
461.5	11997.0
461.4	11950.0
461.3	11945.0
461.2	12021.0
461.1	12134.0
461.0	12107.0
460.9	12029.0
460.8	12214.0
460.7	12093.0
460.6	11941.0
460.5	11958.0
460.4	12035.0
460.3	11989.0
460.2	12059.0
460.1	12004.0
460.0	12042.0
459.9	11909.0
459.8	11967.0
459.7	12090.0
459.6	12124.0
459.5	12053.0
459.4	12014.0
459.3	11993.0
459.2	12145.0
459.1	12214.0
459.0	12113.0
458.9	12013.0
458.8	12066.0
458.7	12029.0
458.6	11992.0
458.5	12092.0
458.4	11962.0
458.3	11979.0
458.2	11900.0
458.1	12136.0
458.0	12072.0
457.9	12012.0
457.8	12113.0
457.7	12147.0
457.6	12117.0
457.5	11997.0
457.4	11966.0
457.3	12123.0
457.2	12100.0
457.1	11992.0
457.0	12230.0
456.9	12119.0
456.8	12159.0
456.7	12174.0
456.6	12194.0
456.5	12193.0
456.4	12142.0
456.3	12094.0
456.2	12046.0
456.1	12108.0
456.0	12082.0
455.9	12131.0
455.8	12269.0
455.7	12149.0
455.6	12033.0
455.5	11902.0
455.4	11860.0
455.3	12045.0
455.2	11950.0
455.1	12128.0
455.0	12042.0
454.9	12065.0
454.8	12024.0
454.7	11918.0
454.6	11965.0
454.5	12150.0
454.4	12121.0
454.3	11908.0
454.2	11934.0
454.1	11942.0
454.0	12025.0
453.9	12161.0
453.8	12130.0
453.7	12107.0
453.6	12213.0
453.5	12166.0
453.4	12097.0
453.3	12052.0
453.2	12109.0
453.1	12104.0
453.0	12139.0
452.9	12033.0
452.8	12171.0
452.7	12093.0
452.6	12069.0
452.5	11976.0
452.4	12127.0
452.3	12165.0
452.2	12235.0
452.1	12107.0
452.0	12235.0
451.9	12015.0
451.8	12098.0
451.7	11891.0
451.6	11996.0
451.5	12122.0
451.4	12047.0
451.3	12038.0
451.2	12019.0
451.1	12083.0
451.0	12154.0
450.9	12026.0
450.8	12045.0
450.7	12030.0
450.6	12010.0
450.5	12016.0
450.4	12137.0
450.3	12165.0
450.2	12109.0
450.1	12144.0
450.0	12170.0