File: XPS/Casa format/UT 18 Ap location T1 in image_UT18ApTi3p_Ti3p.txt
BE/eV	PE: 20.0 eV
49.0	171.0
48.8	173.0
48.6	148.0
48.4	161.0
48.2	166.0
48.0	166.0
47.8	177.0
47.6	156.0
47.4	170.0
47.2	177.0
47.0	173.0
46.8	169.0
46.6	174.0
46.4	163.0
46.2	170.0
46.0	173.0
45.8	172.0
45.6	178.0
45.4	163.0
45.2	165.0
45.0	171.0
44.8	170.0
44.6	175.0
44.4	174.0
44.2	185.0
44.0	154.0
43.8	164.0
43.6	180.0
43.4	181.0
43.2	156.0
43.0	156.0
42.8	163.0
42.6	156.0
42.4	167.0
42.2	170.0
42.0	162.0
41.8	168.0
41.6	154.0
41.4	165.0
41.2	175.0
41.0	149.0
40.8	137.0
40.6	134.0
40.4	162.0
40.2	157.0
40.0	159.0
39.8	153.0
39.6	166.0
39.4	160.0
39.2	139.0
39.0	157.0
38.8	152.0
38.6	167.0
38.4	155.0
38.2	127.0
38.0	142.0
37.8	148.0
37.6	146.0
37.4	155.0
37.2	132.0
37.0	131.0
36.8	148.0
36.6	138.0
36.4	127.0
36.2	145.0
36.0	151.0
35.8	141.0
35.6	143.0
35.4	133.0
35.2	146.0
35.0	145.0
34.8	138.0
34.6	122.0
34.4	130.0
34.2	125.0
34.0	132.0
33.8	120.0
33.6	127.0
33.4	116.0
33.2	131.0
33.0	134.0
32.8	110.0
32.6	131.0
32.4	123.0
32.2	143.0
32.0	121.0
31.8	110.0
31.6	114.0
31.4	114.0
31.2	111.0
31.0	101.0
30.8	114.0
30.6	111.0
30.4	134.0
30.2	116.0
30.0	117.0
29.8	111.0
29.6	125.0
29.4	112.0
29.2	144.0
29.0	132.0
28.8	128.0
28.6	145.0
28.4	131.0
28.2	120.0
28.0	131.0
27.8	131.0
27.6	140.0
27.4	147.0
27.2	134.0
27.0	136.0
26.8	140.0
26.6	147.0
26.4	132.0
26.2	124.0
26.0	159.0
25.8	160.0
25.6	143.0
25.4	149.0
25.2	165.0
25.0	144.0
24.8	166.0
24.6	148.0
24.4	178.0
24.2	142.0
24.0	157.0
23.8	159.0
23.6	165.0
23.4	158.0
23.2	148.0
23.0	156.0
22.8	173.0
22.6	176.0
22.4	173.0
22.2	156.0
22.0	184.0
21.8	199.0
21.6	211.0
21.4	205.0
21.2	243.0
21.0	239.0
20.8	214.0
20.6	246.0
20.4	270.0
20.2	299.0
20.0	240.0
19.8	277.0
19.6	247.0
19.4	279.0
19.2	265.0
19.0	286.0