File: XPS/Casa format/UT 18 Ap location T1 in image_UT18ApCl2p_Cl2p.txt
BE/eV	PE: 20.0 eV
208.0	323.0
207.9	318.0
207.8	317.0
207.7	305.0
207.6	326.0
207.5	334.0
207.4	317.0
207.3	291.0
207.2	305.0
207.1	307.0
207.0	335.0
206.9	331.0
206.8	304.0
206.7	299.0
206.6	333.0
206.5	331.0
206.4	339.0
206.3	299.0
206.2	310.0
206.1	309.0
206.0	307.0
205.9	332.0
205.8	321.0
205.7	320.0
205.6	321.0
205.5	331.0
205.4	336.0
205.3	334.0
205.2	336.0
205.1	328.0
205.0	321.0
204.9	349.0
204.8	343.0
204.7	332.0
204.6	325.0
204.5	307.0
204.4	311.0
204.3	339.0
204.2	350.0
204.1	322.0
204.0	314.0
203.9	310.0
203.8	310.0
203.7	301.0
203.6	328.0
203.5	333.0
203.4	335.0
203.3	321.0
203.2	324.0
203.1	328.0
203.0	337.0
202.9	317.0
202.8	310.0
202.7	309.0
202.6	325.0
202.5	320.0
202.4	325.0
202.3	310.0
202.2	318.0
202.1	332.0
202.0	356.0
201.9	352.0
201.8	328.0
201.7	339.0
201.6	338.0
201.5	337.0
201.4	317.0
201.3	326.0
201.2	332.0
201.1	333.0
201.0	308.0
200.9	319.0
200.8	336.0
200.7	306.0
200.6	306.0
200.5	320.0
200.4	335.0
200.3	333.0
200.2	327.0
200.1	350.0
200.0	329.0
199.9	349.0
199.8	367.0
199.7	348.0
199.6	362.0
199.5	347.0
199.4	332.0
199.3	309.0
199.2	338.0
199.1	355.0
199.0	345.0
198.9	325.0
198.8	329.0
198.7	337.0
198.6	300.0
198.5	319.0
198.4	328.0
198.3	341.0
198.2	346.0
198.1	340.0
198.0	333.0
197.9	306.0
197.8	307.0
197.7	304.0
197.6	311.0
197.5	316.0
197.4	347.0
197.3	299.0
197.2	310.0
197.1	335.0
197.0	344.0
196.9	355.0
196.8	339.0
196.7	321.0
196.6	320.0
196.5	330.0
196.4	333.0
196.3	312.0
196.2	330.0
196.1	332.0
196.0	318.0
195.9	333.0
195.8	321.0
195.7	317.0
195.6	336.0
195.5	321.0
195.4	320.0
195.3	331.0
195.2	321.0
195.1	297.0
195.0	307.0