File: XPS/Casa format/UT 18 Ap location T1 in image_UT18ApC1s_C1s.txt
BE/eV	PE: 20.0 eV
295.0	721.0
294.9	762.0
294.8	759.0
294.7	798.0
294.6	820.0
294.5	840.0
294.4	792.0
294.3	825.0
294.2	810.0
294.1	842.0
294.0	847.0
293.9	819.0
293.8	848.0
293.7	833.0
293.6	800.0
293.5	831.0
293.4	795.0
293.3	797.0
293.2	808.0
293.1	852.0
293.0	846.0
292.9	846.0
292.8	861.0
292.7	872.0
292.6	865.0
292.5	870.0
292.4	880.0
292.3	895.0
292.2	907.0
292.1	942.0
292.0	977.0
291.9	988.0
291.8	1001.0
291.7	996.0
291.6	1034.0
291.5	1083.0
291.4	1109.0
291.3	1107.0
291.2	1106.0
291.1	1104.0
291.0	1201.0
290.9	1128.0
290.8	1200.0
290.7	1198.0
290.6	1230.0
290.5	1172.0
290.4	1193.0
290.3	1178.0
290.2	1214.0
290.1	1200.0
290.0	1090.0
289.9	1135.0
289.8	1159.0
289.7	1127.0
289.6	1166.0
289.5	1156.0
289.4	1137.0
289.3	1141.0
289.2	1122.0
289.1	1104.0
289.0	1131.0
288.9	1134.0
288.8	1134.0
288.7	1142.0
288.6	1152.0
288.5	1161.0
288.4	1189.0
288.3	1154.0
288.2	1166.0
288.1	1156.0
288.0	1160.0
287.9	1171.0
287.8	1128.0
287.7	1160.0
287.6	1219.0
287.5	1232.0
287.4	1284.0
287.3	1299.0
287.2	1290.0
287.1	1300.0
287.0	1316.0
286.9	1405.0
286.8	1417.0
286.7	1459.0
286.6	1498.0
286.5	1571.0
286.4	1594.0
286.3	1712.0
286.2	1774.0
286.1	1844.0
286.0	1981.0
285.9	2027.0
285.8	2131.0
285.7	2218.0
285.6	2301.0
285.5	2386.0
285.4	2440.0
285.3	2529.0
285.2	2742.0
285.1	2887.0
285.0	3093.0
284.9	3382.0
284.8	3682.0
284.7	4259.0
284.6	5026.0
284.5	6002.0
284.4	7615.0
284.3	10084.0
284.2	13816.0
284.1	18764.0
284.0	23025.0
283.9	24820.0
283.8	22477.0
283.7	16787.0
283.6	10456.0
283.5	5895.0
283.4	3322.0
283.3	2016.0
283.2	1413.0
283.1	1069.0
283.0	794.0
282.9	595.0
282.8	470.0
282.7	369.0
282.6	324.0
282.5	279.0
282.4	244.0
282.3	221.0
282.2	213.0
282.1	178.0
282.0	174.0
281.9	169.0
281.8	161.0
281.7	144.0
281.6	129.0
281.5	126.0
281.4	135.0
281.3	113.0
281.2	118.0
281.1	117.0
281.0	103.0
280.9	100.0
280.8	106.0
280.7	97.0
280.6	89.0
280.5	82.0
280.4	82.0
280.3	81.0
280.2	74.0
280.1	81.0
280.0	82.0
279.9	62.0
279.8	68.0
279.7	78.0
279.6	63.0
279.5	64.0
279.4	58.0
279.3	72.0
279.2	61.0
279.1	65.0
279.0	54.0
278.9	59.0
278.8	49.0
278.7	55.0
278.6	53.0
278.5	55.0
278.4	53.0
278.3	55.0
278.2	61.0
278.1	49.0
278.0	54.0
277.9	61.0
277.8	63.0
277.7	64.0
277.6	64.0
277.5	67.0
277.4	57.0
277.3	49.0
277.2	55.0
277.1	50.0
277.0	48.0